EXPID. 0367
[电化学]: i-t : @ 0(V) X 600(sec)
起始电位 (V),0
静置时间 (秒),0
运行时间 (秒),600
记录间隔,0.1
电解液 信息:
HNO3,0.4
0.1,-0.007571765
0.2,-0.006813703
0.3,-0.006159874
0.4,-0.005580499
0.5,-0.005062964
0.6,-0.004542741
0.7,-0.004160753
0.8000001,-0.003903533
0.9000001,-0.003704996
1,-0.003542817
1.1,-0.003405131
1.2,-0.003286959
1.3,-0.003180773
1.4,-0.003087059
1.5,-0.00300244
1.6,-0.002925035
1.7,-0.002854726
1.8,-0.002790129
1.9,-0.00272993
2,-0.002674838
2.1,-0.002623229
2.2,-0.002575021
2.3,-0.002529972
2.4,-0.002487273
2.5,-0.002447359
2.6,-0.002409643
2.7,-0.002373958
2.799999,-0.002340012
2.899999,-0.002308164
2.999999,-0.002277594
3.099999,-0.002248504
3.199999,-0.002220881
3.299999,-0.002194381
3.399999,-0.002168906
3.499999,-0.002144732
3.599999,-0.002121444
3.699999,-0.002098964
3.799999,-0.002077558
3.899998,-0.002057012
3.999998,-0.002037008
4.099998,-0.002017878
4.199998,-0.001999837
4.299998,-0.0019819
4.399998,-0.0019648
4.499998,-0.00194831
4.599998,-0.001932232
4.699998,-0.001916692
4.799998,-0.001901543
4.899998,-0.001886869
4.999998,-0.001872708
5.099998,-0.00185909
5.199997,-0.001845824
5.299997,-0.001832766
5.399997,-0.001820225
5.499997,-0.001807712
5.599997,-0.001795732
5.699997,-0.001784094
5.799997,-0.001772478
5.899997,-0.001761315
5.999997,-0.001750432
6.099997,-0.001739579
6.199996,-0.001729197
6.299996,-0.001718923
6.399996,-0.001708945
6.499996,-0.001699247
6.599996,-0.001689737
6.699996,-0.001680486
6.799996,-0.00167135
6.899996,-0.001662393
6.999996,-0.00165362
7.099996,-0.001645057
7.199996,-0.001636754
7.299995,-0.001628512
7.399995,-0.001620453
7.499995,-0.001612724
7.599995,-0.00160497
7.699995,-0.001597464
7.799995,-0.001590071
7.899995,-0.001582701
7.999995,-0.001575427
8.099995,-0.001568399
8.199995,-0.001561493
8.299995,-0.00155473
8.399996,-0.001548091
8.499996,-0.001541604
8.599997,-0.0015352
8.699997,-0.001528909
8.799997,-0.001522701
8.899998,-0.001516542
8.999998,-0.00151054
9.099998,-0.001504609
9.199999,-0.001498744
9.299999,-0.001493108
9.4,-0.001487584
9.5,-0.001482098
9.6,-0.001476763
9.700001,-0.001471269
9.800001,-0.001466101
9.900002,-0.001460866
10,-0.001455712
10.1,-0.001450669
10.2,-0.001445524
10.3,-0.001440565
10.4,-0.001435698
10.5,-0.001430801
10.6,-0.001425957
10.7,-0.001421149
10.8,-0.001416459
10.90001,-0.001411842
11.00001,-0.001407259
11.10001,-0.001402857
11.20001,-0.001398349
11.30001,-0.001393944
11.40001,-0.001389645
11.50001,-0.001385306
11.60001,-0.001381228
11.70001,-0.001377109
11.80001,-0.001373011
11.90001,-0.001368986
12.00001,-0.00136504
12.10001,-0.001361132
12.20001,-0.001357289
12.30001,-0.001353477
12.40001,-0.00134967
12.50001,-0.001345934
12.60001,-0.001342231
12.70001,-0.00133862
12.80001,-0.001335017
12.90001,-0.001331433
13.00001,-0.001327865
13.10001,-0.001324388
13.20001,-0.001320929
13.30001,-0.001317516
13.40001,-0.001314064
13.50002,-0.001310727
13.60002,-0.001307389
13.70002,-0.001304078
13.80002,-0.001300838
13.90002,-0.001297702
14.00002,-0.001294529
14.10002,-0.001291343
14.20002,-0.00128827
14.30002,-0.001285206
14.40002,-0.001282083
14.50002,-0.001279085
14.60002,-0.001276064
14.70002,-0.001273008
14.80002,-0.001270034
14.90002,-0.001267103
15.00002,-0.001264089
15.10002,-0.001261223
15.20002,-0.00125843
15.30002,-0.001255594
15.40002,-0.001252763
15.50002,-0.001249998
15.60002,-0.001247317
15.70002,-0.001244697
15.80002,-0.001242049
15.90002,-0.001239333
16.00002,-0.00123664
16.10003,-0.001234021
16.20003,-0.001231337
16.30003,-0.001228684
16.40003,-0.001226213
16.50003,-0.001223716
16.60003,-0.001221152
16.70003,-0.001218691
16.80003,-0.001216207
16.90003,-0.001213742
17.00003,-0.001211289
17.10003,-0.001208866
17.20003,-0.00120644
17.30003,-0.00120419
17.40003,-0.001201916
17.50003,-0.001199602
17.60003,-0.001197192
17.70003,-0.001194855
17.80003,-0.001192558
17.90003,-0.001190151
18.00003,-0.001187812
18.10003,-0.001185522
18.20003,-0.001183221
18.30003,-0.001180955
18.40003,-0.001178697
18.50003,-0.001176468
18.60003,-0.00117429
18.70004,-0.001172103
18.80004,-0.001169947
18.90004,-0.00116785
19.00004,-0.001165723
19.10004,-0.001163614
19.20004,-0.001161613
19.30004,-0.001159569
19.40004,-0.001157522
19.50004,-0.001155446
19.60004,-0.00115345
19.70004,-0.001151473
19.80004,-0.001149543
19.90004,-0.001147619
20.00004,-0.001145631
20.10004,-0.001143602
20.20004,-0.001141608
20.30004,-0.001139598
20.40004,-0.001137611
20.50004,-0.00113562
20.60004,-0.001133587
20.70004,-0.001131616
20.80004,-0.001129551
20.90004,-0.001127568
21.00004,-0.001125601
21.10004,-0.001123607
21.20004,-0.001121642
21.30005,-0.001119754
21.40005,-0.001117881
21.50005,-0.001115996
21.60005,-0.00111414
21.70005,-0.001112293
21.80005,-0.001110518
21.90005,-0.001108758
22.00005,-0.001106934
22.10005,-0.001105073
22.20005,-0.001103268
22.30005,-0.0011015
22.40005,-0.001099703
22.50005,-0.001097967
22.60005,-0.001096263
22.70005,-0.001094533
22.80005,-0.001092823
22.90005,-0.001091197
23.00005,-0.001089583
23.10005,-0.001087986
23.20005,-0.001086393
23.30005,-0.00108489
23.40005,-0.001083334
23.50005,-0.001081715
23.60005,-0.001080113
23.70005,-0.001078399
23.80005,-0.001076745
23.90005,-0.001075133
24.00006,-0.001073522
24.10006,-0.00107189
24.20006,-0.001070352
24.30006,-0.001068959
24.40006,-0.001067462
24.50006,-0.001065939
24.60006,-0.001064455
24.70006,-0.001062906
24.80006,-0.001061391
24.90006,-0.001059886
25.00006,-0.001058423
25.10006,-0.001056979
25.20006,-0.001055455
25.30006,-0.001054066
25.40006,-0.001052606
25.50006,-0.001051185
25.60006,-0.001049741
25.70006,-0.001048389
25.80006,-0.001046924
25.90006,-0.001045518
26.00006,-0.001044105
26.10006,-0.001042674
26.20006,-0.001041248
26.30006,-0.001039785
26.40006,-0.001038318
26.50006,-0.001036861
26.60007,-0.001035318
26.70007,-0.001033897
26.80007,-0.001032431
26.90007,-0.001030917
27.00007,-0.001029449
27.10007,-0.001027992
27.20007,-0.00102653
27.30007,-0.001025088
27.40007,-0.001023704
27.50007,-0.001022309
27.60007,-0.001020926
27.70007,-0.001019581
27.80007,-0.001018286
27.90007,-0.001016926
28.00007,-0.001015635
28.10007,-0.00101437
28.20007,-0.001013091
28.30007,-0.001011812
28.40007,-0.001010615
28.50007,-0.001009407
28.60007,-0.001008122
28.70007,-0.001006859
28.80007,-0.001005603
28.90007,-0.001004378
29.00007,-0.00100314
29.10007,-0.001001956
29.20008,-0.001000708
29.30008,-0.0009995818
29.40008,-0.0009983537
29.50008,-0.0009971802
29.60008,-0.0009960013
29.70008,-0.0009947836
29.80008,-0.0009935217
29.90008,-0.000992369
30.00008,-0.0009911946
30.10008,-0.0009899742
30.20008,-0.000988781
30.30008,-0.0009876217
30.40008,-0.0009864935
30.50008,-0.0009853935
30.60008,-0.0009842853
30.70008,-0.0009831523
30.80008,-0.0009819997
30.90008,-0.0009808649
31.00008,-0.0009796716
31.10008,-0.0009784738
31.20008,-0.0009772918
31.30008,-0.0009760903
31.40008,-0.0009748754
31.50008,-0.0009736822
31.60008,-0.0009725898
31.70008,-0.0009714352
31.80009,-0.000970292
31.90009,-0.0009691516
32.00008,-0.0009679744
32.10008,-0.0009668189
32.20008,-0.0009656342
32.30008,-0.0009645032
32.40008,-0.0009633637
32.50008,-0.0009622157
32.60007,-0.0009611261
32.70007,-0.0009600158
32.80007,-0.0009589564
32.90007,-0.0009578696
33.00007,-0.0009567951
33.10007,-0.0009557592
33.20007,-0.0009546705
33.30006,-0.0009536063
33.40006,-0.0009525808
33.50006,-0.0009515148
33.60006,-0.0009505071
33.70006,-0.0009494439
33.80006,-0.0009484353
33.90005,-0.0009474267
34.00005,-0.0009463824
34.10005,-0.0009453681
34.20005,-0.0009443915
34.30005,-0.0009434385
34.40005,-0.0009425128
34.50005,-0.0009414713
34.60004,-0.0009404353
34.70004,-0.0009394541
34.80004,-0.0009385076
34.90004,-0.0009375226
35.00004,-0.0009364942
35.10004,-0.0009354884
35.20004,-0.000934445
35.30003,-0.000933379
35.40003,-0.0009323873
35.50003,-0.0009313457
35.60003,-0.0009303268
35.70003,-0.0009292975
35.80003,-0.0009282861
35.90002,-0.0009272342
36.00002,-0.0009262312
36.10002,-0.0009252283
36.20002,-0.000924264
36.30002,-0.0009232846
36.40002,-0.0009222656
36.50002,-0.0009212843
36.60001,-0.0009203011
36.70001,-0.0009194046
36.80001,-0.0009184468
36.90001,-0.0009174985
37.00001,-0.0009165342
37.10001,-0.0009155972
37.2,-0.0009146451
37.3,-0.0009137382
37.4,-0.0009128596
37.5,-0.0009119508
37.6,-0.0009110693
37.7,-0.000910169
37.8,-0.0009092056
37.89999,-0.0009082715
37.99999,-0.0009073457
38.09999,-0.0009064021
38.19999,-0.0009054829
38.29999,-0.0009045836
38.39999,-0.0009036814
38.49998,-0.0009027887
38.59998,-0.0009019515
38.69998,-0.0009009702
38.79998,-0.0009001358
38.89998,-0.0008992732
38.99998,-0.0008983513
39.09998,-0.000897417
39.19997,-0.0008964969
39.29997,-0.0008957078
39.39997,-0.000894816
39.49997,-0.0008938508
39.59997,-0.000892974
39.69997,-0.0008920831
39.79996,-0.0008911762
39.89996,-0.0008902872
39.99996,-0.0008893907
40.09996,-0.0008884772
40.19996,-0.0008875778
40.29996,-0.0008867011
40.39996,-0.0008858478
40.49995,-0.0008849985
40.59995,-0.0008840482
40.69995,-0.0008832412
40.79995,-0.0008824191
40.89995,-0.0008815536
40.99995,-0.0008806655
41.09995,-0.0008798208
41.19994,-0.0008789008
41.29994,-0.0008780268
41.39994,-0.0008771415
41.49994,-0.0008762535
41.59994,-0.000875405
41.69994,-0.0008745471
41.79993,-0.0008736826
41.89993,-0.0008727936
41.99993,-0.0008719978
42.09993,-0.0008711747
42.19993,-0.000870315
42.29993,-0.000869442
42.39993,-0.0008686217
42.49992,-0.00086781
42.59992,-0.0008669822
42.69992,-0.0008661892
42.79992,-0.0008653351
42.89992,-0.0008645252
42.99992,-0.00086372
43.09991,-0.0008629469
43.19991,-0.0008620861
43.29991,-0.0008612442
43.39991,-0.0008604767
43.49991,-0.0008596555
43.59991,-0.0008587825
43.69991,-0.0008579727
43.7999,-0.0008571552
43.8999,-0.0008563124
43.9999,-0.0008554346
44.0999,-0.0008545946
44.1999,-0.0008537782
44.2999,-0.0008529401
44.39989,-0.0008521019
44.49989,-0.0008513202
44.59989,-0.0008504906
44.69989,-0.0008496411
44.79989,-0.000848884
44.89989,-0.0008481287
44.99989,-0.0008473151
45.09988,-0.0008464967
45.19988,-0.0008457151
45.29988,-0.0008449748
45.39988,-0.0008441198
45.49988,-0.0008434059
45.59988,-0.0008426629
45.69987,-0.0008418908
45.79987,-0.0008410648
45.89987,-0.000840334
45.99987,-0.0008394638
46.09987,-0.0008386596
46.19987,-0.0008378855
46.29987,-0.0008371284
46.39986,-0.0008363185
46.49986,-0.0008355303
46.59986,-0.0008348145
46.69986,-0.0008339971
46.79986,-0.0008332249
46.89986,-0.0008324734
46.99986,-0.0008317435
47.09985,-0.0008310099
47.19985,-0.0008302405
47.29985,-0.000829521
47.39985,-0.0008287319
47.49985,-0.0008279973
47.59985,-0.0008272439
47.69984,-0.0008264519
47.79984,-0.0008256722
47.89984,-0.0008248906
47.99984,-0.0008241494
48.09984,-0.0008234007
48.19984,-0.0008226258
48.29984,-0.0008218469
48.39983,-0.0008211227
48.49983,-0.0008203392
48.59983,-0.00081963
48.69983,-0.0008188945
48.79983,-0.0008181609
48.89983,-0.0008173944
48.99982,-0.0008166343
49.09982,-0.0008158961
49.19982,-0.0008151248
49.29982,-0.0008144383
49.39982,-0.0008137263
49.49982,-0.0008128986
49.59982,-0.0008121828
49.69981,-0.0008113937
49.79981,-0.0008105978
49.89981,-0.0008097739
49.99981,-0.0008088764
50.09981,-0.0008080364
50.19981,-0.0008072217
50.2998,-0.0008064203
50.3998,-0.0008055728
50.4998,-0.0008047865
50.5998,-0.0008040462
50.6998,-0.0008032769
50.7998,-0.0008024971
50.8998,-0.000801771
50.99979,-0.0008009913
51.09979,-0.0008002539
51.19979,-0.0007995504
51.29979,-0.0007988263
51.39979,-0.0007980663
51.49979,-0.0007973383
51.59978,-0.0007966142
51.69978,-0.0007958805
51.79978,-0.0007951658
51.89978,-0.0007943417
51.99978,-0.0007936401
52.09978,-0.0007929404
52.19978,-0.0007922369
52.29977,-0.0007915513
52.39977,-0.0007908922
52.49977,-0.0007902188
52.59977,-0.0007895078
52.69977,-0.0007888515
52.79977,-0.0007881573
52.89977,-0.0007874935
52.99976,-0.0007868267
53.09976,-0.000786176
53.19976,-0.0007854923
53.29976,-0.0007847926
53.39976,-0.0007841032
53.49976,-0.0007833546
53.59975,-0.0007825983
53.69975,-0.0007818779
53.79975,-0.0007811688
53.89975,-0.0007804219
53.99975,-0.0007797298
54.09975,-0.0007790584
54.19975,-0.0007782881
54.29974,-0.0007776062
54.39974,-0.0007769574
54.49974,-0.000776318
54.59974,-0.0007756427
54.69974,-0.0007750287
54.79974,-0.0007743488
54.89973,-0.0007737046
54.99973,-0.0007731104
55.09973,-0.0007724728
55.19973,-0.0007718211
55.29973,-0.0007711478
55.39973,-0.0007704462
55.49973,-0.0007697776
55.59972,-0.0007691024
55.69972,-0.0007684329
55.79972,-0.0007677689
55.89972,-0.0007670767
55.99972,-0.0007663996
56.09972,-0.0007657121
56.19971,-0.0007649965
56.29971,-0.0007643268
56.39971,-0.0007636441
56.49971,-0.0007629698
56.59971,-0.0007623502
56.69971,-0.0007617305
56.79971,-0.0007611155
56.8997,-0.0007605119
56.9997,-0.0007598574
57.0997,-0.0007592067
57.1997,-0.00075857
57.2997,-0.0007580107
57.3997,-0.0007573486
57.49969,-0.0007567186
57.59969,-0.0007561282
57.69969,-0.0007555273
57.79969,-0.0007549613
57.89969,-0.0007543454
57.99969,-0.0007537163
58.09969,-0.0007530751
58.19968,-0.0007524705
58.29968,-0.0007518423
58.39968,-0.0007512444
58.49968,-0.0007506303
58.59968,-0.000750071
58.69968,-0.0007494202
58.79967,-0.0007488363
58.89967,-0.0007482882
58.99967,-0.0007476337
59.09967,-0.0007469736
59.19967,-0.0007463256
59.29967,-0.0007457135
59.39967,-0.0007450261
59.49966,-0.0007443866
59.59966,-0.0007437575
59.69966,-0.0007431727
59.79966,-0.0007425465
59.89966,-0.0007419155
59.99966,-0.0007412921
60.09966,-0.0007406677
60.19965,-0.0007400716
60.29965,-0.0007394435
60.39965,-0.0007388135
60.49965,-0.0007382597
60.59965,-0.0007376382
60.69965,-0.0007370355
60.79964,-0.0007364931
60.89964,-0.0007359167
60.99964,-0.0007353065
61.09964,-0.0007347254
61.19964,-0.0007341519
61.29964,-0.0007335426
61.39964,-0.0007329814
61.49963,-0.0007323965
61.59963,-0.0007317947
61.69963,-0.0007312448
61.79963,-0.0007306911
61.89963,-0.0007300855
61.99963,-0.000729543
62.09962,-0.0007289544
62.19962,-0.0007283716
62.29962,-0.000727766
62.39962,-0.0007272189
62.49962,-0.0007266275
62.59962,-0.0007260672
62.69962,-0.0007255171
62.79961,-0.0007248985
62.89961,-0.0007243033
62.99961,-0.000723726
63.09961,-0.0007231242
63.19961,-0.0007225102
63.29961,-0.0007219433
63.3996,-0.0007213331
63.4996,-0.00072072
63.5996,-0.0007201267
63.6996,-0.0007195381
63.7996,-0.0007189119
63.8996,-0.0007183233
63.9996,-0.0007177375
64.09959,-0.0007170708
64.19959,-0.0007164681
64.29959,-0.0007159021
64.39959,-0.0007152965
64.49959,-0.0007146383
64.59959,-0.0007140121
64.69958,-0.0007134573
64.79958,-0.0007128396
64.89958,-0.0007121615
64.99958,-0.0007115739
65.09958,-0.0007109204
65.19958,-0.0007103006
65.29958,-0.0007096735
65.39957,-0.0007090595
65.49957,-0.0007084614
65.59957,-0.0007078785
65.69957,-0.0007072805
65.79957,-0.0007066769
65.89957,-0.0007061138
65.99957,-0.00070556
66.09956,-0.0007049658
66.19956,-0.0007044327
66.29956,-0.0007039101
66.39956,-0.0007033733
66.49956,-0.0007028045
66.59956,-0.0007022696
66.69955,-0.0007017046
66.79955,-0.0007010802
66.89955,-0.0007004992
66.99955,-0.0006999266
67.09955,-0.0006993145
67.19955,-0.0006987513
67.29955,-0.000698142
67.39954,-0.0006975628
67.49954,-0.0006970496
67.59954,-0.0006964986
67.69954,-0.0006959119
67.79954,-0.0006953808
67.89954,-0.0006948431
67.99953,-0.0006942611
68.09953,-0.000693713
68.19953,-0.0006932177
68.29953,-0.0006926141
68.39953,-0.0006920631
68.49953,-0.0006915734
68.59953,-0.0006909924
68.69952,-0.0006904857
68.79952,-0.0006899838
68.89952,-0.0006894348
68.99952,-0.000688848
69.09952,-0.0006882802
69.19952,-0.0006877585
69.29951,-0.0006871228
69.39951,-0.0006865794
69.49951,-0.0006859927
69.59951,-0.0006853448
69.69951,-0.0006847346
69.79951,-0.000684163
69.89951,-0.0006835922
69.9995,-0.0006830028
70.0995,-0.0006824311
70.1995,-0.0006818679
70.2995,-0.0006812643
70.3995,-0.0006806935
70.4995,-0.0006801389
70.59949,-0.0006795474
70.69949,-0.0006789881
70.79949,-0.0006784598
70.89949,-0.0006779107
70.99949,-0.0006773194
71.09949,-0.0006768042
71.19949,-0.000676243
71.29948,-0.0006757203
71.39948,-0.0006752438
71.49948,-0.0006746881
71.59948,-0.0006741928
71.69948,-0.0006737153
71.79948,-0.0006731936
71.89948,-0.000672653
71.99947,-0.0006721399
72.09947,-0.0006716709
72.19947,-0.0006711218
72.29947,-0.000670585
72.39947,-0.000670099
72.49947,-0.0006695802
72.59946,-0.00066905
72.69946,-0.0006685641
72.79946,-0.000668048
72.89946,-0.0006675545
72.99946,-0.0006671044
73.09946,-0.0006666222
73.19946,-0.0006661183
73.29945,-0.0006656052
73.39945,-0.0006650948
73.49945,-0.0006646098
73.59945,-0.0006641135
73.69945,-0.0006636115
73.79945,-0.0006631444
73.89944,-0.0006626368
73.99944,-0.0006621904
74.09944,-0.0006616178
74.19944,-0.0006610886
74.29944,-0.0006606206
74.39944,-0.0006600819
74.49944,-0.0006595357
74.59943,-0.0006590564
74.69943,-0.0006585422
74.79943,-0.0006579687
74.89943,-0.0006574799
74.99943,-0.0006570212
75.09943,-0.0006564694
75.19942,-0.0006559807
75.29942,-0.0006554458
75.39942,-0.0006549316
75.49942,-0.0006544117
75.59942,-0.0006538976
75.69942,-0.0006534257
75.79942,-0.0006528871
75.89941,-0.0006523785
75.99941,-0.0006518343
76.09941,-0.0006512842
76.19941,-0.0006507936
76.29941,-0.0006502766
76.39941,-0.0006497464
76.4994,-0.0006492652
76.5994,-0.0006487716
76.6994,-0.0006482698
76.7994,-0.0006477688
76.8994,-0.0006473035
76.9994,-0.0006468101
77.0994,-0.0006462884
77.19939,-0.0006458241
77.29939,-0.0006453212
77.39939,-0.0006448306
77.49939,-0.0006443795
77.59939,-0.0006439331
77.69939,-0.0006434613
77.79939,-0.0006429848
77.89938,-0.0006424895
77.99938,-0.0006419667
78.09938,-0.0006414328
78.19938,-0.0006409318
78.29938,-0.0006404553
78.39938,-0.0006400145
78.49937,-0.0006395003
78.59937,-0.0006389947
78.69937,-0.0006384955
78.79937,-0.0006379861
78.89937,-0.0006374983
78.99937,-0.0006370142
79.09937,-0.0006365537
79.19936,-0.0006360687
79.29936,-0.0006355555
79.39936,-0.000635127
79.49936,-0.0006346796
79.59936,-0.0006341975
79.69936,-0.0006337228
79.79935,-0.000633253
79.89935,-0.0006328084
79.99935,-0.000632395
80.09935,-0.0006319317
80.19935,-0.0006314326
80.29935,-0.0006309617
80.39935,-0.0006304305
80.49934,-0.0006299371
80.59934,-0.0006294587
80.69934,-0.0006289831
80.79934,-0.0006284388
80.89934,-0.000627934
80.99934,-0.0006274792
81.09933,-0.0006269792
81.19933,-0.0006264818
81.29933,-0.0006260119
81.39933,-0.0006255326
81.49933,-0.0006250966
81.59933,-0.0006246182
81.69933,-0.0006241567
81.79932,-0.00062365
81.89932,-0.0006231896
81.99932,-0.0006227149
82.09932,-0.0006222319
82.19932,-0.0006217082
82.29932,-0.0006211771
82.39931,-0.0006206827
82.49931,-0.0006201374
82.59931,-0.0006196223
82.69931,-0.000619061
82.79931,-0.0006185374
82.89931,-0.0006180261
82.99931,-0.0006175128
83.0993,-0.0006169732
83.1993,-0.0006164609
83.2993,-0.0006159599
83.3993,-0.000615473
83.4993,-0.0006149918
83.5993,-0.0006145106
83.6993,-0.0006140077
83.79929,-0.0006135133
83.89929,-0.0006130867
83.99929,-0.0006126214
84.09929,-0.0006121158
84.19929,-0.000611692
84.29929,-0.0006112042
84.39928,-0.0006107342
84.49928,-0.0006103275
84.59928,-0.0006098904
84.69928,-0.0006094421
84.79928,-0.0006090297
84.89928,-0.0006085635
84.99928,-0.0006081389
85.09927,-0.0006076925
85.19927,-0.0006072536
85.29927,-0.0006067714
85.39927,-0.0006063213
85.49927,-0.0006058721
85.59927,-0.0006054191
85.69926,-0.0006049708
85.79926,-0.0006045565
85.89926,-0.0006040545
85.99926,-0.0006035884
86.09926,-0.0006031769
86.19926,-0.000602755
86.29926,-0.0006022879
86.39925,-0.0006018283
86.49925,-0.0006013744
86.59925,-0.0006009082
86.69925,-0.000600427
86.79925,-0.0005999231
86.89925,-0.0005994419
86.99924,-0.0005989494
87.09924,-0.0005984475
87.19924,-0.0005980076
87.29924,-0.0005975321
87.39924,-0.0005970499
87.49924,-0.0005965593
87.59924,-0.0005961327
87.69923,-0.0005957127
87.79923,-0.0005952258
87.89923,-0.0005947973
87.99923,-0.0005943415
88.09923,-0.0005938716
88.19923,-0.0005934469
88.29922,-0.0005930334
88.39922,-0.0005926031
88.49922,-0.0005921369
88.59922,-0.000591748
88.69922,-0.0005913506
88.79922,-0.0005909079
88.89922,-0.0005904728
88.99921,-0.0005900934
89.09921,-0.0005896083
89.19921,-0.0005891827
89.29921,-0.0005887317
89.39921,-0.0005882928
89.49921,-0.0005878163
89.59921,-0.0005873718
89.6992,-0.0005869094
89.7992,-0.0005864329
89.8992,-0.0005859771
89.9992,-0.0005855825
90.0992,-0.0005851238
90.1992,-0.0005846671
90.29919,-0.0005842368
90.39919,-0.0005837913
90.49919,-0.0005833327
90.59919,-0.0005829126
90.69919,-0.0005824437
90.79919,-0.0005819955
90.89919,-0.0005815952
90.99918,-0.0005811648
91.09918,-0.0005806799
91.19918,-0.0005803051
91.29918,-0.0005798539
91.39918,-0.0005793925
91.49918,-0.0005789866
91.59917,-0.000578559
91.69917,-0.0005780825
91.79917,-0.0005776493
91.89917,-0.0005772717
91.99917,-0.0005768479
92.09917,-0.0005764204
92.19917,-0.0005759853
92.29916,-0.0005755841
92.39916,-0.0005751302
92.49916,-0.0005747374
92.59916,-0.0005742779
92.69916,-0.0005738589
92.79916,-0.0005734747
92.89915,-0.0005730867
92.99915,-0.000572645
93.09915,-0.0005722466
93.19915,-0.0005717993
93.29915,-0.000571353
93.39915,-0.0005709545
93.49915,-0.0005705082
93.59914,-0.0005700514
93.69914,-0.0005696437
93.79914,-0.0005692773
93.89914,-0.0005688677
93.99914,-0.000568394
94.09914,-0.0005679881
94.19913,-0.0005675445
94.29913,-0.0005671076
94.39913,-0.0005667263
94.49913,-0.0005663005
94.59913,-0.0005658381
94.69913,-0.0005654201
94.79913,-0.0005649981
94.89912,-0.0005645292
94.99912,-0.0005640997
95.09912,-0.0005637042
95.19912,-0.0005632625
95.29912,-0.0005628152
95.39912,-0.0005623981
95.49911,-0.0005619761
95.59911,-0.0005615222
95.69911,-0.0005611361
95.79911,-0.0005607292
95.89911,-0.000560281
95.99911,-0.0005598412
96.09911,-0.0005594089
96.1991,-0.0005590115
96.2991,-0.0005586189
96.3991,-0.0005582205
96.4991,-0.0005577732
96.5991,-0.000557387
96.6991,-0.0005569764
96.7991,-0.0005565489
96.89909,-0.000556144
96.99909,-0.0005557494
97.09909,-0.0005553699
97.19909,-0.0005549546
97.29909,-0.0005545506
97.39909,-0.0005541286
97.49908,-0.0005537106
97.59908,-0.0005532924
97.69908,-0.0005529044
97.79908,-0.0005524552
97.89908,-0.0005520125
97.99908,-0.0005515502
98.09908,-0.0005510784
98.19907,-0.0005506038
98.29907,-0.0005501432
98.39907,-0.0005496479
98.49907,-0.0005492364
98.59907,-0.0005487853
98.69907,-0.0005483238
98.79906,-0.0005478755
98.89906,-0.0005474621
98.99906,-0.0005470157
99.09906,-0.0005465751
99.19906,-0.0005461654
99.29906,-0.0005456908
99.39906,-0.0005452782
99.49905,-0.0005449119
99.59905,-0.0005444646
99.69905,-0.0005441001
99.79905,-0.0005437489
99.89905,-0.0005433194
99.99905,-0.0005428627
100.099,-0.0005424427
100.199,-0.0005420839
100.299,-0.0005416648
100.399,-0.0005412336
100.499,-0.0005408088
100.599,-0.000540354
100.699,-0.0005399293
100.799,-0.0005395393
100.899,-0.0005391194
100.999,-0.0005386937
101.099,-0.0005382604
101.199,-0.0005378528
101.299,-0.0005374459
101.399,-0.0005370514
101.499,-0.0005366529
101.599,-0.0005362584
101.699,-0.0005358854
101.799,-0.0005354993
101.899,-0.0005350916
101.999,-0.0005347064
102.099,-0.0005343589
102.199,-0.0005339239
102.299,-0.0005335528
102.399,-0.0005332137
102.499,-0.0005327598
102.599,-0.0005324199
102.699,-0.0005320601
102.799,-0.0005316749
102.899,-0.0005312662
102.999,-0.000530882
103.099,-0.0005304836
103.199,-0.0005300806
103.299,-0.00052967
103.399,-0.0005292443
103.499,-0.0005288572
103.599,-0.0005284392
103.699,-0.0005280286
103.799,-0.0005275916
103.899,-0.0005271697
103.999,-0.0005267742
104.099,-0.0005263946
104.199,-0.0005259879
104.299,-0.0005256215
104.399,-0.0005252184
104.499,-0.0005248305
104.599,-0.0005244754
104.699,-0.0005240818
104.799,-0.0005237004
104.899,-0.0005233284
104.999,-0.0005229659
105.099,-0.0005225741
105.199,-0.0005222124
105.299,-0.0005218245
105.399,-0.0005214572
105.499,-0.000521089
105.599,-0.0005207292
105.699,-0.0005203723
105.799,-0.0005200371
105.899,-0.0005196867
105.999,-0.0005192704
106.099,-0.0005189211
106.199,-0.0005185726
106.299,-0.0005181612
106.3989,-0.0005177957
106.4989,-0.0005174614
106.5989,-0.0005170997
106.6989,-0.0005167231
106.7989,-0.0005163511
106.8989,-0.0005159961
106.9989,-0.0005155817
107.0989,-0.00051522
107.1989,-0.0005148453
107.2989,-0.000514428
107.3989,-0.0005139807
107.4989,-0.0005135834
107.5989,-0.0005131718
107.6989,-0.0005127414
107.7989,-0.0005123704
107.8989,-0.0005120098
107.9989,-0.0005116151
108.0989,-0.0005112045
108.1989,-0.0005108325
108.2989,-0.000510469
108.3989,-0.0005100763
108.4989,-0.0005096864
108.5989,-0.0005093616
108.6989,-0.0005089914
108.7989,-0.000508595
108.8989,-0.0005082334
108.9989,-0.0005078604
109.0989,-0.0005075157
109.1989,-0.0005071437
109.2989,-0.0005067794
109.3989,-0.0005064639
109.4989,-0.0005060938
109.5989,-0.0005057199
109.6989,-0.0005053771
109.7989,-0.000505039
109.8989,-0.0005046623
109.9989,-0.0005043308
110.0989,-0.0005039786
110.1989,-0.0005035831
110.2989,-0.0005031584
110.3989,-0.000502792
110.4989,-0.0005023909
110.5989,-0.0005019539
110.6989,-0.0005015819
110.7989,-0.000501226
110.8989,-0.0005008813
110.9989,-0.0005005084
111.0989,-0.0005001128
111.1989,-0.0004997955
111.2989,-0.0004993849
111.3989,-0.0004990129
111.4989,-0.0004986409
111.5989,-0.000498251
111.6989,-0.0004978771
111.7989,-0.0004974845
111.8989,-0.0004970899
111.9989,-0.0004967226
112.0989,-0.0004963346
112.1989,-0.0004959372
112.2989,-0.0004955596
112.3989,-0.0004951471
112.4989,-0.0004947007
112.5989,-0.0004943447
112.6989,-0.0004939171
112.7989,-0.0004935273
112.8988,-0.000493161
112.9988,-0.000492804
113.0988,-0.0004924283
113.1988,-0.0004920459
113.2988,-0.0004916975
113.3988,-0.0004913274
113.4988,-0.0004909441
113.5988,-0.0004905966
113.6988,-0.0004902397
113.7988,-0.0004898593
113.8988,-0.0004895099
113.9988,-0.0004891793
114.0988,-0.0004888328
114.1988,-0.0004884523
114.2988,-0.0004881218
114.3988,-0.0004877714
114.4988,-0.0004874136
114.5988,-0.0004870887
114.6988,-0.0004867298
114.7988,-0.0004864087
114.8988,-0.0004860867
114.9988,-0.0004857448
115.0988,-0.0004853936
115.1988,-0.0004850282
115.2988,-0.0004847249
115.3988,-0.0004843614
115.4988,-0.0004839895
115.5988,-0.0004836325
115.6988,-0.0004832794
115.7988,-0.0004828839
115.8988,-0.000482525
115.9988,-0.0004821662
116.0988,-0.0004817896
116.1988,-0.0004813969
116.2988,-0.0004810202
116.3988,-0.0004806454
116.4988,-0.0004803073
116.5988,-0.0004799155
116.6988,-0.0004795718
116.7988,-0.0004792167
116.8988,-0.0004788429
116.9988,-0.0004784784
117.0988,-0.0004781347
117.1988,-0.0004778023
117.2988,-0.0004774482
117.3988,-0.0004770903
117.4988,-0.0004767796
117.5988,-0.0004764188
117.6988,-0.0004760619
117.7988,-0.0004757361
117.8988,-0.0004753952
117.9988,-0.0004750298
118.0988,-0.0004747134
118.1988,-0.0004743885
118.2988,-0.0004740287
118.3988,-0.0004736775
118.4988,-0.0004733771
118.5988,-0.0004730324
118.6988,-0.0004726388
118.7988,-0.0004722941
118.8988,-0.0004719598
118.9988,-0.0004715802
119.0988,-0.000471245
119.1988,-0.0004709135
119.2988,-0.0004704812
119.3988,-0.0004700669
119.4987,-0.0004696836
119.5987,-0.0004692805
119.6987,-0.0004688492
119.7987,-0.000468498
119.8987,-0.0004681533
119.9987,-0.0004677634
120.0987,-0.0004674027
120.1987,-0.0004670656
120.2987,-0.0004666955
120.3987,-0.0004663226
120.4987,-0.0004659892
120.5987,-0.000465669
120.6987,-0.0004652867
120.7987,-0.0004649448
120.8987,-0.0004646039
120.9987,-0.0004642328
121.0987,-0.0004639117
121.1987,-0.0004635783
121.2987,-0.000463261
121.3987,-0.0004629182
121.4987,-0.0004626055
121.5987,-0.0004622985
121.6987,-0.0004619727
121.7987,-0.0004616553
121.8987,-0.0004613512
121.9987,-0.0004610498
122.0987,-0.0004607183
122.1987,-0.0004603925
122.2987,-0.0004600374
122.3987,-0.0004597408
122.4987,-0.0004594036
122.5987,-0.0004590609
122.6987,-0.000458752
122.7987,-0.0004584478
122.8987,-0.0004581521
122.9987,-0.0004578639
123.0987,-0.0004575673
123.1987,-0.0004572301
123.2987,-0.00045691
123.3987,-0.0004566077
123.4987,-0.0004562602
123.5987,-0.0004559211
123.6987,-0.0004556452
123.7987,-0.0004553062
123.8987,-0.0004549559
123.9987,-0.0004546489
124.0987,-0.0004543108
124.1987,-0.0004539604
124.2987,-0.0004536516
124.3987,-0.0004533493
124.4987,-0.0004530272
124.5987,-0.0004526948
124.6987,-0.0004523633
124.7987,-0.0004520497
124.8987,-0.0004517125
124.9987,-0.0004513566
125.0987,-0.0004510232
125.1987,-0.0004506616
125.2987,-0.0004503207
125.3987,-0.0004499826
125.4987,-0.0004496012
125.5987,-0.0004492575
125.6987,-0.0004489062
125.7987,-0.0004485285
125.8987,-0.0004481971
125.9986,-0.0004478166
126.0986,-0.0004474747
126.1986,-0.0004471725
126.2986,-0.0004468118
126.3986,-0.0004464426
126.4986,-0.0004461422
126.5986,-0.000445822
126.6986,-0.0004454406
126.7986,-0.0004450818
126.8986,-0.0004447795
126.9986,-0.0004444537
127.0986,-0.000444141
127.1986,-0.0004438397
127.2986,-0.0004435072
127.3986,-0.0004432021
127.4986,-0.0004429347
127.5986,-0.0004426032
127.6986,-0.0004422905
127.7986,-0.0004420259
127.8986,-0.0004417867
127.9986,-0.0004414929
128.0986,-0.0004411924
128.1986,-0.0004409015
128.2986,-0.0004405832
128.3986,-0.0004402554
128.4986,-0.000439939
128.5986,-0.0004396386
128.6987,-0.0004392977
128.7987,-0.0004390416
128.8987,-0.0004387214
128.9987,-0.0004383852
129.0987,-0.0004380847
129.1987,-0.0004378342
129.2987,-0.0004375141
129.3987,-0.0004371826
129.4987,-0.0004368991
129.5987,-0.0004365789
129.6987,-0.0004362785
129.7987,-0.0004359819
129.8987,-0.0004356993
129.9987,-0.0004353613
130.0987,-0.0004350383
130.1987,-0.0004347152
130.2988,-0.0004344204
130.3988,-0.0004341483
130.4988,-0.0004337933
130.5988,-0.0004335061
130.6988,-0.0004332235
130.7988,-0.0004329118
130.8988,-0.00043257
130.9988,-0.0004322582
131.0988,-0.0004319607
131.1988,-0.0004316198
131.2988,-0.0004312864
131.3988,-0.0004310415
131.4988,-0.000430694
131.5988,-0.000430372
131.6988,-0.0004301036
131.7988,-0.0004298211
131.8988,-0.0004294575
131.9989,-0.0004291336
132.0989,-0.0004288049
132.1989,-0.0004284565
132.2989,-0.0004280939
132.3989,-0.000427785
132.4989,-0.000427431
132.5989,-0.0004271051
132.6989,-0.0004268028
132.7989,-0.0004264657
132.8989,-0.0004261549
132.9989,-0.0004258601
133.0989,-0.0004255908
133.1989,-0.0004252376
133.2989,-0.0004249174
133.3989,-0.0004245963
133.4989,-0.0004242724
133.599,-0.0004239983
133.699,-0.0004236941
133.799,-0.0004233749
133.899,-0.0004230962
133.999,-0.0004228099
134.099,-0.000422517
134.199,-0.0004221892
134.299,-0.0004219105
134.399,-0.0004216374
134.499,-0.0004213276
134.599,-0.0004210488
134.699,-0.0004207437
134.799,-0.0004204527
134.899,-0.0004201815
134.999,-0.0004198754
135.099,-0.0004195703
135.1991,-0.0004193029
135.2991,-0.000419009
135.3991,-0.0004187077
135.4991,-0.000418444
135.5991,-0.0004181643
135.6991,-0.0004178724
135.7991,-0.0004176068
135.8991,-0.0004173365
135.9991,-0.0004170258
136.0991,-0.0004167395
136.1991,-0.0004164805
136.2991,-0.0004162102
136.3991,-0.0004159023
136.4991,-0.000415633
136.5991,-0.0004153457
136.6991,-0.0004150745
136.7991,-0.0004148004
136.8992,-0.0004144963
136.9992,-0.0004142137
137.0992,-0.0004139491
137.1992,-0.0004136873
137.2992,-0.0004133521
137.3992,-0.0004130837
137.4992,-0.0004127625
137.5992,-0.0004124471
137.6992,-0.0004121674
137.7992,-0.0004119103
137.8992,-0.0004115524
137.9992,-0.0004112972
138.0992,-0.0004110259
138.1992,-0.0004106738
138.2992,-0.0004103988
138.3992,-0.0004101285
138.4993,-0.0004097998
138.5993,-0.0004094495
138.6993,-0.0004091237
138.7993,-0.0004087913
138.8993,-0.0004084343
138.9993,-0.0004081462
139.0993,-0.0004078279
139.1993,-0.0004075209
139.2993,-0.0004072167
139.3993,-0.0004069502
139.4993,-0.0004066432
139.5993,-0.0004063409
139.6993,-0.0004060687
139.7993,-0.0004057222
139.8993,-0.0004054236
139.9993,-0.0004051646
140.0993,-0.0004048614
140.1994,-0.0004045648
140.2994,-0.0004043086
140.3994,-0.0004040515
140.4994,-0.0004037181
140.5994,-0.0004034328
140.6994,-0.0004031757
140.7994,-0.0004028631
140.8994,-0.000402574
140.9994,-0.0004022933
141.0994,-0.0004020212
141.1994,-0.0004017368
141.2994,-0.0004014533
141.3994,-0.0004012009
141.4994,-0.0004009325
141.5994,-0.0004006274
141.6994,-0.0004003496
141.7995,-0.0004000831
141.8995,-0.0003998128
141.9995,-0.0003995284
142.0995,-0.0003992892
142.1995,-0.0003990142
142.2995,-0.0003987392
142.3995,-0.0003984322
142.4995,-0.000398129
142.5995,-0.000397853
142.6995,-0.000397531
142.7995,-0.0003972531
142.8995,-0.000396982
142.9995,-0.0003967107
143.0995,-0.0003963773
143.1995,-0.0003961052
143.2995,-0.0003958039
143.3996,-0.0003955175
143.4996,-0.0003952529
143.5996,-0.0003949553
143.6996,-0.0003947001
143.7996,-0.0003944412
143.8996,-0.0003941501
143.9996,-0.0003938403
144.0996,-0.0003935701
144.1996,-0.0003933111
144.2996,-0.00039299
144.3996,-0.0003927272
144.4996,-0.0003924353
144.5996,-0.0003921
144.6996,-0.0003917657
144.7996,-0.0003915029
144.8996,-0.0003911404
144.9996,-0.000390775
145.0997,-0.0003904925
145.1997,-0.0003902099
145.2997,-0.0003898709
145.3997,-0.000389563
145.4997,-0.0003893049
145.5997,-0.0003890393
145.6997,-0.000388723
145.7997,-0.0003884517
145.8997,-0.0003881918
145.9997,-0.0003879027
146.0997,-0.0003876249
146.1997,-0.0003873631
146.2997,-0.000387074
146.3997,-0.0003867745
146.4997,-0.0003864864
146.5997,-0.0003862255
146.6998,-0.000385926
146.7998,-0.0003856934
146.8998,-0.000385426
146.9998,-0.0003851529
147.0998,-0.0003849202
147.1998,-0.000384633
147.2998,-0.000384359
147.3998,-0.0003841264
147.4998,-0.0003838787
147.5998,-0.0003835915
147.6998,-0.0003833391
147.7998,-0.0003830575
147.8998,-0.0003828023
147.9998,-0.0003825669
148.0998,-0.0003823229
148.1998,-0.0003820122
148.2999,-0.0003817673
148.3999,-0.0003815385
148.4999,-0.00038124
148.5999,-0.0003809763
148.6999,-0.0003807361
148.7999,-0.00038048
148.8999,-0.0003801956
148.9999,-0.0003799309
149.0999,-0.0003796946
149.1999,-0.0003793989
149.2999,-0.0003791361
149.3999,-0.0003788197
149.4999,-0.0003785636
149.5999,-0.0003782905
149.6999,-0.0003780098
149.7999,-0.0003777283
149.8999,-0.00037749
150,-0.0003772159
150.1,-0.0003769457
150.2,-0.0003766745
150.3,-0.0003764098
150.4,-0.0003761508
150.5,-0.0003758702
150.6,-0.0003756442
150.7,-0.0003753485
150.8,-0.0003750933
150.9,-0.0003748465
151,-0.0003745565
151.1,-0.0003743276
151.2,-0.0003740734
151.3,-0.0003738295
151.4,-0.0003735262
151.5,-0.0003732503
151.6001,-0.0003729706
151.7001,-0.0003727069
151.8001,-0.0003724235
151.9001,-0.0003721664
152.0001,-0.0003718942
152.1001,-0.0003715928
152.2001,-0.0003713499
152.3001,-0.0003710448
152.4001,-0.0003707321
152.5001,-0.0003705004
152.6001,-0.0003702245
152.7001,-0.0003699382
152.8001,-0.0003696887
152.9001,-0.0003694739
153.0001,-0.0003691359
153.1001,-0.0003689089
153.2001,-0.000368633
153.3002,-0.0003683674
153.4002,-0.000368051
153.5002,-0.0003678043
153.6002,-0.0003675528
153.7002,-0.0003672392
153.8002,-0.0003669774
153.9002,-0.0003667213
154.0002,-0.0003664529
154.1002,-0.0003661892
154.2002,-0.0003659208
154.3002,-0.0003656543
154.4002,-0.0003654226
154.5002,-0.0003651769
154.6002,-0.0003649047
154.7002,-0.0003646636
154.8002,-0.0003644112
154.9003,-0.0003641353
155.0003,-0.0003638518
155.1003,-0.0003636334
155.2003,-0.0003633546
155.3003,-0.0003631003
155.4003,-0.0003628865
155.5003,-0.0003626134
155.6003,-0.000362362
155.7003,-0.0003621567
155.8003,-0.0003618902
155.9003,-0.0003615964
156.0003,-0.0003613487
156.1003,-0.0003611057
156.2003,-0.0003608486
156.3003,-0.0003606311
156.4003,-0.0003603571
156.5004,-0.0003600736
156.6004,-0.0003597967
156.7004,-0.0003595425
156.8004,-0.0003592496
156.9004,-0.0003589624
157.0004,-0.0003587138
157.1004,-0.0003584303
157.2004,-0.0003581572
157.3004,-0.0003579001
157.4004,-0.0003576298
157.5004,-0.0003573709
157.6004,-0.0003570789
157.7004,-0.0003568152
157.8004,-0.0003565609
157.9004,-0.0003562973
158.0004,-0.0003560307
158.1004,-0.0003558047
158.2005,-0.0003555552
158.3005,-0.000355331
158.4005,-0.0003550419
158.5005,-0.0003547566
158.6005,-0.0003545287
158.7005,-0.0003542537
158.8005,-0.0003539863
158.9005,-0.0003537244
159.0005,-0.0003534598
159.1005,-0.0003531933
159.2005,-0.0003529767
159.3005,-0.0003527215
159.4005,-0.0003524738
159.5005,-0.0003522506
159.6005,-0.0003519983
159.7005,-0.0003517063
159.8006,-0.000351485
159.9006,-0.0003511987
160.0006,-0.0003509284
160.1006,-0.0003506723
160.2006,-0.0003504331
160.3006,-0.0003501741
160.4006,-0.0003499462
160.5006,-0.0003497372
160.6006,-0.0003494575
160.7006,-0.0003492277
160.8006,-0.0003489988
160.9006,-0.0003487483
161.0006,-0.0003484752
161.1006,-0.000348269
161.2006,-0.0003480147
161.3006,-0.0003477454
161.4007,-0.0003475316
161.5007,-0.0003473263
161.6007,-0.0003470231
161.7007,-0.0003467999
161.8007,-0.0003466087
161.9007,-0.000346329
162.0007,-0.0003460898
162.1007,-0.0003459109
162.2007,-0.0003456726
162.3007,-0.000345391
162.4007,-0.0003451801
162.5007,-0.0003449287
162.6007,-0.0003446763
162.7007,-0.0003444465
162.8007,-0.0003441706
162.9007,-0.0003438852
163.0007,-0.0003436253
163.1008,-0.0003433635
163.2008,-0.0003430546
163.3008,-0.0003427938
163.4008,-0.0003425235
163.5008,-0.0003422335
163.6008,-0.0003419867
163.7008,-0.0003417626
163.8008,-0.0003415177
163.9008,-0.0003412493
164.0008,-0.0003410412
164.1008,-0.0003408143
164.2008,-0.00034056
164.3008,-0.0003403321
164.4008,-0.0003401023
164.5008,-0.0003398668
164.6008,-0.0003396013
164.7009,-0.0003393913
164.8009,-0.0003391803
164.9009,-0.000338944
165.0009,-0.000338701
165.1009,-0.0003384825
165.2009,-0.0003382255
165.3009,-0.0003379636
165.4009,-0.0003377612
165.5009,-0.000337521
165.6009,-0.0003372658
165.7009,-0.0003370812
165.8009,-0.0003368336
165.9009,-0.0003366066
166.0009,-0.0003364154
166.1009,-0.0003361659
166.2009,-0.0003359276
166.3009,-0.0003357072
166.401,-0.0003354775
166.501,-0.000335227
166.601,-0.0003349831
166.701,-0.000334741
166.801,-0.0003344999
166.901,-0.000334272
167.001,-0.0003340131
167.101,-0.000333803
167.201,-0.0003335902
167.301,-0.0003333689
167.401,-0.0003331184
167.501,-0.0003328914
167.601,-0.0003326795
167.701,-0.0003324414
167.801,-0.0003321946
167.901,-0.0003319657
168.0011,-0.0003317115
168.1011,-0.000331492
168.2011,-0.0003312811
168.3011,-0.0003310843
168.4011,-0.0003307952
168.5011,-0.0003305852
168.6011,-0.0003303855
168.7011,-0.0003301689
168.8011,-0.0003299071
168.9011,-0.0003297018
169.0011,-0.000329472
169.1011,-0.0003292404
169.2011,-0.0003290172
169.3011,-0.0003288119
169.4011,-0.0003285623
169.5011,-0.0003283702
169.6012,-0.0003281122
169.7012,-0.0003278777
169.8012,-0.0003276328
169.9012,-0.0003273682
170.0012,-0.0003271074
170.1012,-0.0003268578
170.2012,-0.0003266252
170.3012,-0.0003263426
170.4012,-0.0003260884
170.5012,-0.0003258718
170.6012,-0.0003256062
170.7012,-0.0003253284
170.8012,-0.0003251128
170.9012,-0.0003248641
171.0012,-0.0003246051
171.1012,-0.0003243584
171.2012,-0.0003241183
171.3013,-0.000323881
171.4013,-0.0003236295
171.5013,-0.0003234186
171.6013,-0.0003231813
171.7013,-0.0003229562
171.8013,-0.0003227452
171.9013,-0.0003225164
172.0013,-0.0003222669
172.1013,-0.0003220446
172.2013,-0.0003217857
172.3013,-0.0003215831
172.4013,-0.0003213534
172.5013,-0.0003211377
172.6013,-0.0003208985
172.7013,-0.0003206697
172.8013,-0.0003204503
172.9014,-0.0003202017
173.0014,-0.0003199427
173.1014,-0.0003197505
173.2014,-0.0003195
173.3014,-0.0003192505
173.4014,-0.0003190358
173.5014,-0.0003188192
173.6014,-0.000318563
173.7014,-0.0003183295
173.8014,-0.0003181289
173.9014,-0.0003178869
174.0014,-0.0003176411
174.1014,-0.0003174527
174.2014,-0.0003172201
174.3014,-0.0003169668
174.4014,-0.0003168001
174.5014,-0.0003165571
174.6015,-0.0003163349
174.7015,-0.000316139
174.8015,-0.0003159497
174.9015,-0.000315703
175.0015,-0.0003154657
175.1015,-0.0003152736
175.2015,-0.0003150843
175.3015,-0.000314847
175.4015,-0.0003146558
175.5015,-0.000314441
175.6015,-0.0003142132
175.7015,-0.0003140135
175.8015,-0.0003137894
175.9015,-0.0003135653
176.0015,-0.0003133572
176.1015,-0.0003131255
176.2016,-0.0003129277
176.3016,-0.0003127187
176.4016,-0.0003125237
176.5016,-0.0003122807
176.6016,-0.0003120557
176.7016,-0.0003118956
176.8016,-0.0003116705
176.9016,-0.000311419
177.0016,-0.0003112288
177.1016,-0.0003110329
177.2016,-0.0003107975
177.3016,-0.0003106026
177.4016,-0.0003103766
177.5016,-0.0003101449
177.6016,-0.0003099443
177.7016,-0.0003097352
177.8017,-0.0003095026
177.9017,-0.0003093228
178.0017,-0.0003091137
178.1017,-0.0003088858
178.2017,-0.0003087031
178.3017,-0.0003085044
178.4017,-0.0003082567
178.5017,-0.0003080514
178.6017,-0.0003078716
178.7017,-0.0003076352
178.8017,-0.0003073931
178.9017,-0.0003071972
179.0017,-0.0003070165
179.1017,-0.0003067669
179.2017,-0.0003065871
179.3017,-0.0003063676
179.4017,-0.0003061576
179.5018,-0.0003059749
179.6018,-0.000305715
179.7018,-0.0003055068
179.8018,-0.0003053355
179.9018,-0.0003051377
180.0018,-0.0003049023
180.1018,-0.0003046857
180.2018,-0.0003045378
180.3018,-0.0003043137
180.4018,-0.0003040886
180.5018,-0.0003039266
180.6018,-0.0003037006
180.7018,-0.0003034652
180.8018,-0.0003033089
180.9018,-0.0003030603
181.0018,-0.0003028192
181.1019,-0.0003026205
181.2019,-0.0003024434
181.3019,-0.0003021797
181.4019,-0.0003019886
181.5019,-0.0003018077
181.6019,-0.0003015789
181.7019,-0.0003013133
181.8019,-0.0003011344
181.9019,-0.0003009187
182.0019,-0.0003006456
182.1019,-0.0003004705
182.2019,-0.0003002388
182.3019,-0.0003000081
182.4019,-0.0002997972
182.5019,-0.0002996267
182.6019,-0.0002993913
182.702,-0.0002991624
182.802,-0.0002989571
182.902,-0.0002987302
183.002,-0.0002984938
183.102,-0.0002983017
183.202,-0.0002980888
183.302,-0.0002978544
183.402,-0.0002976443
183.502,-0.000297423
183.602,-0.0002971876
183.702,-0.0002969635
183.802,-0.0002967525
183.902,-0.0002965105
184.002,-0.0002963381
184.102,-0.0002961037
184.202,-0.0002959003
184.302,-0.0002957166
184.4021,-0.0002955226
184.5021,-0.0002952674
184.6021,-0.000295096
184.7021,-0.000294903
184.8021,-0.0002946242
184.9021,-0.0002944519
185.0021,-0.0002942654
185.1021,-0.0002940413
185.2021,-0.0002938284
185.3021,-0.0002936448
185.4021,-0.0002934659
185.5021,-0.000293221
185.6021,-0.0002930355
185.7021,-0.0002928161
185.8021,-0.0002926089
185.9021,-0.0002923923
186.0022,-0.0002922143
186.1022,-0.0002920015
186.2022,-0.0002918009
186.3022,-0.0002915909
186.4022,-0.0002913903
186.5022,-0.0002911784
186.6022,-0.0002909703
186.7022,-0.0002907396
186.8022,-0.0002905098
186.9022,-0.0002903299
187.0022,-0.0002900775
187.1022,-0.0002898327
187.2022,-0.0002896246
187.3022,-0.0002893769
187.4022,-0.0002891791
187.5022,-0.0002889794
187.6022,-0.0002887478
187.7023,-0.0002885321
187.8023,-0.0002883382
187.9023,-0.0002881178
188.0023,-0.000287888
188.1023,-0.0002877053
188.2023,-0.0002875339
188.3023,-0.0002873164
188.4023,-0.0002870969
188.5023,-0.000286935
188.6023,-0.0002867457
188.7023,-0.000286515
188.8023,-0.0002863426
188.9023,-0.000286176
189.0023,-0.0002859226
189.1023,-0.000285754
189.2023,-0.0002855892
189.3024,-0.0002853679
189.4024,-0.0002851777
189.5024,-0.0002850383
189.6024,-0.000284834
189.7024,-0.0002846127
189.8024,-0.0002844385
189.9024,-0.0002842247
190.0024,-0.0002840222
190.1024,-0.0002838433
190.2024,-0.0002836455
190.3024,-0.0002834082
190.4024,-0.0002832001
190.5024,-0.0002830164
190.6024,-0.0002828083
190.7024,-0.0002825559
190.8024,-0.0002824024
190.9025,-0.0002822235
191.0025,-0.000281989
191.1025,-0.0002817988
191.2025,-0.0002816236
191.3025,-0.0002813966
191.4025,-0.000281197
191.5025,-0.0002810021
191.6025,-0.0002807845
191.7025,-0.0002805755
191.8025,-0.0002804041
191.9025,-0.0002802025
192.0025,-0.0002799897
192.1025,-0.0002798033
192.2025,-0.0002796159
192.3025,-0.0002794134
192.4025,-0.0002792232
192.5025,-0.0002790244
192.6026,-0.0002788408
192.7026,-0.0002786477
192.8026,-0.0002784405
192.9026,-0.0002782485
193.0026,-0.0002780629
193.1026,-0.0002778755
193.2026,-0.0002776778
193.3026,-0.0002774828
193.4026,-0.0002773105
193.5026,-0.0002771052
193.6026,-0.0002769008
193.7026,-0.0002767247
193.8026,-0.0002765147
193.9026,-0.0002762981
194.0026,-0.0002761408
194.1026,-0.0002759619
194.2027,-0.0002757406
194.3027,-0.0002755316
194.4027,-0.0002753856
194.5027,-0.000275169
194.6027,-0.0002749731
194.7027,-0.0002748281
194.8027,-0.0002746463
194.9027,-0.0002744363
195.0027,-0.0002742565
195.1027,-0.0002740568
195.2027,-0.0002738336
195.3027,-0.000273666
195.4027,-0.0002734607
195.5027,-0.0002732441
195.6027,-0.0002730397
195.7027,-0.0002728458
195.8027,-0.0002726602
195.9028,-0.0002724521
196.0028,-0.0002722732
196.1028,-0.0002720688
196.2028,-0.0002718852
196.3028,-0.0002717194
196.4028,-0.0002715028
196.5028,-0.0002713258
196.6028,-0.0002711883
196.7028,-0.0002709849
196.8028,-0.0002707476
196.9028,-0.0002705724
197.0028,-0.0002703963
197.1028,-0.000270176
197.2028,-0.0002699659
197.3028,-0.0002697738
197.4028,-0.0002695685
197.5029,-0.0002693774
197.6029,-0.0002692003
197.7029,-0.0002689724
197.8029,-0.0002687897
197.9029,-0.0002686371
198.0029,-0.0002684168
198.1029,-0.0002681945
198.2029,-0.0002680599
198.3029,-0.0002678602
198.4029,-0.0002676455
198.5029,-0.0002674807
198.6029,-0.000267314
198.7029,-0.0002671125
198.8029,-0.0002669251
198.9029,-0.0002667471
199.0029,-0.0002665625
199.103,-0.000266377
199.203,-0.0002661887
199.303,-0.0002660229
199.403,-0.0002658345
199.503,-0.0002656641
199.603,-0.0002654588
199.703,-0.000265262
199.803,-0.0002651198
199.903,-0.0002649456
200.003,-0.0002647271
200.103,-0.0002645623
200.203,-0.0002644314
200.303,-0.0002641997
200.403,-0.000264033
200.503,-0.000263856
200.603,-0.0002636883
200.703,-0.0002634821
200.8031,-0.0002632909
200.9031,-0.0002631177
201.0031,-0.0002629265
201.1031,-0.0002627429
201.2031,-0.0002625385
201.3031,-0.0002623661
201.4031,-0.0002622089
201.5031,-0.000261981
201.6031,-0.0002617879
201.7031,-0.0002616391
201.8031,-0.0002614611
201.9031,-0.0002612455
202.0031,-0.0002610741
202.1031,-0.0002608726
202.2031,-0.0002606748
202.3031,-0.0002604968
202.4032,-0.0002603123
202.5032,-0.0002600862
202.6032,-0.0002599007
202.7032,-0.0002597058
202.8032,-0.0002594995
202.9032,-0.0002592575
203.0032,-0.0002591049
203.1032,-0.0002589072
203.2032,-0.000258668
203.3032,-0.0002584947
203.4032,-0.0002583139
203.5032,-0.0002580879
203.6032,-0.000257908
203.7032,-0.0002577385
203.8032,-0.000257552
203.9032,-0.000257374
204.0033,-0.0002571941
204.1033,-0.0002570181
204.2033,-0.0002568354
204.3033,-0.0002566706
204.4033,-0.0002564973
204.5033,-0.0002563325
204.6033,-0.0002561639
204.7033,-0.000255984
204.8033,-0.0002558258
204.9033,-0.0002556008
205.0033,-0.0002553955
205.1033,-0.0002552212
205.2033,-0.0002549962
205.3033,-0.000254805
205.4033,-0.0002546082
205.5033,-0.0002544302
205.6033,-0.0002542465
205.7034,-0.000254062
205.8034,-0.0002538736
205.9034,-0.0002536815
206.0034,-0.0002534988
206.1034,-0.0002533387
206.2034,-0.0002531711
206.3034,-0.0002529997
206.4034,-0.0002528434
206.5034,-0.0002526607
206.6034,-0.0002524648
206.7034,-0.0002522736
206.8034,-0.0002520881
206.9034,-0.0002518903
207.0034,-0.0002517152
207.1034,-0.0002515118
207.2034,-0.0002513583
207.3035,-0.0002511661
207.4035,-0.0002509702
207.5035,-0.0002508168
207.6035,-0.0002506435
207.7035,-0.0002504655
207.8035,-0.0002503082
207.9035,-0.0002501303
208.0035,-0.0002499626
208.1035,-0.0002498204
208.2035,-0.0002496339
208.3035,-0.0002494409
208.4035,-0.0002493119
208.5035,-0.0002491565
208.6035,-0.0002489521
208.7035,-0.000248793
208.8035,-0.0002486423
208.9035,-0.0002484719
209.0036,-0.000248275
209.1036,-0.0002481394
209.2036,-0.0002479746
209.3036,-0.0002477693
209.4036,-0.000247629
209.5036,-0.0002474651
209.6036,-0.000247305
209.7036,-0.0002471327
209.8036,-0.000246967
209.9036,-0.0002468021
210.0036,-0.0002466402
210.1036,-0.0002464895
210.2036,-0.0002462738
210.3036,-0.0002460846
210.4036,-0.0002459452
210.5036,-0.0002457719
210.6037,-0.0002455864
210.7037,-0.0002454508
210.8037,-0.0002452653
210.9037,-0.0002450835
211.0037,-0.0002449309
211.1037,-0.0002447313
211.2037,-0.0002445401
211.3037,-0.00024438
211.4037,-0.0002441757
211.5037,-0.0002439666
211.6037,-0.000243766
211.7037,-0.0002435805
211.8037,-0.0002433959
211.9037,-0.0002432104
212.0037,-0.0002430202
212.1037,-0.0002428544
212.2038,-0.000242684
212.3038,-0.0002425342
212.4038,-0.0002423449
212.5038,-0.0002421811
212.6038,-0.0002420417
212.7038,-0.0002418439
212.8038,-0.0002416772
212.9038,-0.0002415303
213.0038,-0.0002413467
213.1038,-0.0002411574
213.2038,-0.0002409936
213.3038,-0.0002408485
213.4038,-0.0002406508
213.5038,-0.0002404558
213.6038,-0.0002403485
213.7038,-0.0002401601
213.8038,-0.0002399897
213.9039,-0.0002398635
214.0039,-0.0002396921
214.1039,-0.0002395226
214.2039,-0.0002393832
214.3039,-0.0002392184
214.4039,-0.0002390348
214.5039,-0.0002388822
214.6039,-0.0002386995
214.7039,-0.000238546
214.8039,-0.0002383746
214.9039,-0.0002382079
215.0039,-0.0002380582
215.1039,-0.0002378783
215.2039,-0.0002377163
215.3039,-0.0002375468
215.4039,-0.0002374046
215.504,-0.0002372417
215.604,-0.0002370778
215.704,-0.0002369215
215.804,-0.0002367981
215.904,-0.0002366616
216.004,-0.0002364648
216.104,-0.0002363216
216.204,-0.0002361493
216.304,-0.0002359732
216.404,-0.0002358065
216.504,-0.0002356596
216.604,-0.0002354637
216.704,-0.0002352801
216.804,-0.0002351398
216.904,-0.0002349429
217.004,-0.0002347263
217.104,-0.0002345851
217.2041,-0.0002344127
217.3041,-0.0002342131
217.4041,-0.0002340511
217.5041,-0.0002339023
217.6041,-0.000233714
217.7041,-0.0002335529
217.8041,-0.0002334013
217.9041,-0.0002332441
218.0041,-0.0002330491
218.1041,-0.0002329248
218.2041,-0.0002327769
218.3041,-0.0002325867
218.4041,-0.0002324351
218.5041,-0.0002322741
218.6041,-0.0002321177
218.7041,-0.0002319492
218.8042,-0.0002317947
218.9042,-0.0002316506
219.0042,-0.0002315235
219.1042,-0.0002313465
219.2042,-0.0002311788
219.3042,-0.0002310394
219.4042,-0.0002309283
219.5042,-0.0002307428
219.6042,-0.0002305564
219.7042,-0.0002304349
219.8042,-0.0002302851
219.9042,-0.000230093
220.0042,-0.000229947
220.1042,-0.00022977
220.2042,-0.0002295788
220.3042,-0.0002294639
220.4043,-0.0002292784
220.5043,-0.0002290976
220.6043,-0.0002289629
220.7043,-0.0002288377
220.8043,-0.0002286399
220.9043,-0.0002284987
221.0043,-0.0002283772
221.1043,-0.0002281841
221.2043,-0.0002280184
221.3043,-0.0002278912
221.4043,-0.0002277302
221.5043,-0.0002275513
221.6043,-0.0002274317
221.7043,-0.000227297
221.8043,-0.0002271115
221.9043,-0.0002269646
222.0043,-0.0002268177
222.1044,-0.0002266274
222.2044,-0.0002264645
222.3044,-0.0002263044
222.4044,-0.000226166
222.5044,-0.0002260181
222.6044,-0.0002258712
222.7044,-0.0002257337
222.8044,-0.0002256104
222.9044,-0.0002254559
223.0044,-0.0002252864
223.1044,-0.0002251527
223.2044,-0.0002250227
223.3044,-0.000224824
223.4044,-0.0002246592
223.5044,-0.0002245283
223.6044,-0.0002243616
223.7045,-0.0002241733
223.8045,-0.0002240471
223.9045,-0.0002238672
224.0045,-0.0002236817
224.1045,-0.0002235517
224.2045,-0.0002234105
224.3045,-0.0002232099
224.4045,-0.0002230696
224.5045,-0.0002229208
224.6045,-0.0002227824
224.7045,-0.0002226128
224.8045,-0.0002224716
224.9045,-0.0002223049
225.0045,-0.0002221429
225.1045,-0.0002220167
225.2045,-0.0002218613
225.3046,-0.0002216796
225.4046,-0.0002215506
225.5046,-0.000221414
225.6046,-0.0002212426
225.7046,-0.0002211061
225.8046,-0.0002209413
225.9046,-0.0002207868
226.0046,-0.0002206606
226.1046,-0.0002205062
226.2046,-0.0002203489
226.3046,-0.0002202039
226.4046,-0.0002200617
226.5046,-0.0002198988
226.6046,-0.0002197537
226.7046,-0.0002196125
226.8046,-0.0002194336
226.9046,-0.0002192725
227.0047,-0.0002191294
227.1047,-0.0002189429
227.2047,-0.0002187527
227.3047,-0.0002186331
227.4047,-0.0002184655
227.5047,-0.0002182884
227.6047,-0.000218165
227.7047,-0.0002180049
227.8047,-0.0002178486
227.9047,-0.0002177036
228.0047,-0.0002175896
228.1047,-0.00021739
228.2047,-0.0002172553
228.3047,-0.0002171329
228.4047,-0.0002169643
228.5047,-0.000216808
228.6048,-0.0002167054
228.7048,-0.0002165377
228.8048,-0.000216339
228.9048,-0.000216211
229.0048,-0.0002160301
229.1048,-0.0002158569
229.2048,-0.0002157288
229.3048,-0.0002155696
229.4048,-0.0002153719
229.5048,-0.000215209
229.6048,-0.0002150894
229.7048,-0.0002149452
229.8048,-0.0002147626
229.9048,-0.0002146505
230.0048,-0.0002144819
230.1048,-0.0002142917
230.2048,-0.0002141909
230.3049,-0.0002140506
230.4049,-0.0002138623
230.5049,-0.0002137314
230.6049,-0.0002135713
230.7049,-0.0002134197
230.8049,-0.0002132567
230.9049,-0.0002131287
231.0049,-0.0002130043
231.1049,-0.0002128301
231.2049,-0.0002126719
231.3049,-0.0002125401
231.4049,-0.0002123715
231.5049,-0.0002122086
231.6049,-0.000212073
231.7049,-0.0002119101
231.8049,-0.0002117349
231.905,-0.0002116106
232.005,-0.0002114448
232.105,-0.0002113224
232.205,-0.000211184
232.305,-0.0002110154
232.405,-0.0002108685
232.505,-0.0002107687
232.605,-0.0002105879
232.705,-0.0002104391
232.805,-0.0002103393
232.905,-0.0002101763
233.005,-0.0002100012
233.105,-0.0002099089
233.205,-0.0002097554
233.305,-0.0002095962
233.405,-0.0002094653
233.5051,-0.0002093476
233.6051,-0.0002091668
233.7051,-0.000209018
233.8051,-0.0002088918
233.9051,-0.0002087515
234.0051,-0.0002086055
234.1051,-0.0002084652
234.2051,-0.0002083164
234.3051,-0.0002081516
234.4051,-0.0002080235
234.5051,-0.0002078672
234.6051,-0.0002077099
234.7051,-0.0002075489
234.8051,-0.0002074265
234.9051,-0.0002073041
235.0051,-0.0002071421
235.1051,-0.0002070178
235.2052,-0.0002068878
235.3052,-0.0002067428
235.4052,-0.0002066232
235.5052,-0.0002064518
235.6052,-0.0002062992
235.7052,-0.0002061721
235.8052,-0.0002060751
235.9052,-0.0002058933
236.0052,-0.0002057672
236.1052,-0.0002056381
236.2052,-0.0002054809
236.3052,-0.00020535
236.4052,-0.0002051701
236.5052,-0.0002050062
236.6052,-0.0002048706
236.7052,-0.0002046728
236.8053,-0.0002045335
236.9053,-0.0002043875
237.0053,-0.00020425
237.1053,-0.000204104
237.2053,-0.000203975
237.3053,-0.0002038319
237.4053,-0.0002036737
237.5053,-0.0002035597
237.6053,-0.0002034307
237.7053,-0.0002032603
237.8053,-0.0002031322
237.9053,-0.0002030418
238.0053,-0.0002028902
238.1053,-0.0002027188
238.2053,-0.0002025822
238.3053,-0.0002024645
238.4053,-0.0002022799
238.5054,-0.0002021179
238.6054,-0.0002019748
238.7054,-0.0002018185
238.8054,-0.0002016669
238.9054,-0.0002015237
239.0054,-0.0002013843
239.1054,-0.0002012478
239.2054,-0.0002011385
239.3054,-0.0002009794
239.4054,-0.0002008249
239.5054,-0.0002006969
239.6054,-0.0002005773
239.7054,-0.0002004049
239.8054,-0.0002002656
239.9054,-0.0002001469
240.0054,-0.0001999915
240.1055,-0.0001998324
240.2055,-0.0001997175
240.3055,-0.0001995809
240.4055,-0.0001994293
240.5055,-0.0001993078
240.6055,-0.0001992005
240.7055,-0.0001990479
240.8055,-0.0001989368
240.9055,-0.0001988172
241.0055,-0.0001986599
241.1055,-0.0001985441
241.2055,-0.0001984141
241.3055,-0.0001982851
241.4055,-0.0001981457
241.5055,-0.0001979913
241.6055,-0.0001978886
241.7056,-0.0001977662
241.8056,-0.0001976183
241.9056,-0.0001974818
242.0056,-0.0001973311
242.1056,-0.0001971993
242.2056,-0.000197059
242.3056,-0.0001968923
242.4056,-0.0001968047
242.5056,-0.0001966531
242.6056,-0.0001964666
242.7056,-0.0001963376
242.8056,-0.0001961982
242.9056,-0.0001960362
243.0056,-0.0001959279
243.1056,-0.0001957923
243.2056,-0.0001956266
243.3056,-0.0001955136
243.4057,-0.0001953883
243.5057,-0.0001952094
243.6057,-0.000195071
243.7057,-0.000194974
243.8057,-0.0001948308
243.9057,-0.0001946877
244.0057,-0.0001945511
244.1057,-0.0001944249
244.2057,-0.0001942724
244.3057,-0.0001941707
244.4057,-0.0001940322
244.5057,-0.0001938957
244.6057,-0.0001937817
244.7057,-0.0001936433
244.8057,-0.0001935369
244.9057,-0.0001933956
245.0058,-0.0001932619
245.1058,-0.0001931432
245.2058,-0.0001930236
245.3058,-0.0001928579
245.4058,-0.0001927458
245.5058,-0.0001926394
245.6058,-0.0001925085
245.7058,-0.0001923663
245.8058,-0.0001922166
245.9058,-0.0001921403
246.0058,-0.0001919858
246.1058,-0.0001918371
246.2058,-0.0001917429
246.3058,-0.0001916129
246.4058,-0.0001914632
246.5058,-0.0001913577
246.6059,-0.0001912381
246.7059,-0.0001910761
246.8059,-0.0001909744
246.9059,-0.0001908548
247.0059,-0.0001906957
247.1059,-0.0001905554
247.2059,-0.0001904471
247.3059,-0.0001902888
247.4059,-0.000190108
247.5059,-0.0001899828
247.6059,-0.0001898632
247.7059,-0.0001896946
247.8059,-0.0001895628
247.9059,-0.000189446
248.0059,-0.0001892756
248.1059,-0.0001891381
248.2059,-0.0001890213
248.306,-0.0001888979
248.406,-0.0001887331
248.506,-0.0001886408
248.606,-0.0001885033
248.706,-0.0001883545
248.806,-0.0001882425
248.906,-0.0001881304
249.006,-0.0001879816
249.106,-0.0001878498
249.206,-0.0001877358
249.306,-0.0001875814
249.406,-0.0001874458
249.506,-0.0001873092
249.606,-0.0001871727
249.706,-0.0001870672
249.806,-0.0001869193
249.9061,-0.000186796
250.0061,-0.0001866924
250.1061,-0.0001865813
250.2061,-0.0001864146
250.3061,-0.0001863091
250.4061,-0.000186213
250.5061,-0.0001860746
250.6061,-0.0001859258
250.7061,-0.0001858363
250.8061,-0.0001857026
250.9061,-0.0001855698
251.0061,-0.0001854644
251.1061,-0.0001853391
251.2061,-0.0001851866
251.3061,-0.000185083
251.4061,-0.0001849596
251.5061,-0.0001847901
251.6062,-0.0001846498
251.7062,-0.0001845556
251.8062,-0.0001844256
251.9062,-0.0001842627
252.0062,-0.0001841855
252.1062,-0.00018408
252.2062,-0.0001839048
252.3062,-0.0001837984
252.4062,-0.0001836883
252.5062,-0.0001835187
252.6062,-0.0001833888
252.7062,-0.0001833059
252.8062,-0.0001831421
252.9062,-0.0001830055
253.0062,-0.0001829217
253.1062,-0.0001827701
253.2063,-0.0001826222
253.3063,-0.0001825497
253.4063,-0.000182399
253.5063,-0.0001822634
253.6063,-0.0001821589
253.7063,-0.0001820402
253.8063,-0.0001818792
253.9063,-0.0001817869
254.0063,-0.0001816513
254.1063,-0.0001814912
254.2063,-0.0001813396
254.3063,-0.0001812407
254.4063,-0.000181107
254.5063,-0.0001809318
254.6063,-0.0001808414
254.7063,-0.0001807152
254.8064,-0.0001805636
254.9064,-0.0001804459
255.0064,-0.0001803385
255.1064,-0.0001801709
255.2064,-0.000180023
255.3064,-0.000179926
255.4064,-0.0001798064
255.5064,-0.0001796454
255.6064,-0.0001795531
255.7064,-0.0001794439
255.8064,-0.0001793092
255.9064,-0.000179199
256.0064,-0.0001790813
256.1064,-0.0001789834
256.2064,-0.0001788449
256.3064,-0.0001787027
256.4064,-0.0001786067
256.5064,-0.0001785125
256.6064,-0.0001783967
256.7065,-0.0001782366
256.8065,-0.0001781283
256.9065,-0.000178003
257.0065,-0.0001778797
257.1065,-0.0001777563
257.2065,-0.0001776376
257.3065,-0.0001775039
257.4065,-0.0001773683
257.5065,-0.0001772883
257.6065,-0.0001771244
257.7065,-0.0001769803
257.8065,-0.0001769285
257.9065,-0.000176776
258.0065,-0.0001766479
258.1065,-0.0001765443
258.2065,-0.0001764444
258.3065,-0.000176291
258.4066,-0.0001761751
258.5066,-0.0001760649
258.6066,-0.0001759359
258.7066,-0.0001758163
258.8066,-0.0001757165
258.9066,-0.0001755724
259.0066,-0.0001754688
259.1066,-0.0001753681
259.2066,-0.0001752503
259.3066,-0.0001751148
259.4066,-0.0001750394
259.5066,-0.0001748887
259.6066,-0.0001747569
259.7066,-0.0001746608
259.8066,-0.0001745233
259.9066,-0.0001743764
260.0067,-0.0001742766
260.1067,-0.0001741937
260.2067,-0.0001740383
260.3067,-0.0001739234
260.4067,-0.0001738377
260.5067,-0.0001736974
260.6067,-0.000173559
260.7067,-0.0001735025
260.8067,-0.000173382
260.9067,-0.0001732303
261.0067,-0.0001731145
261.1067,-0.0001730137
261.2067,-0.0001728612
261.3067,-0.0001727529
261.4067,-0.0001726474
261.5067,-0.0001725165
261.6068,-0.0001723715
261.7068,-0.0001722952
261.8068,-0.0001721652
261.9068,-0.0001720381
262.0068,-0.0001719515
262.1068,-0.0001718432
262.2068,-0.0001717179
262.3068,-0.00017162
262.4068,-0.0001715183
262.5068,-0.0001713864
262.6068,-0.0001712791
262.7068,-0.0001711548
262.8068,-0.000171037
262.9068,-0.0001709033
263.0068,-0.0001707997
263.1068,-0.0001706707
263.2068,-0.0001705398
263.3069,-0.0001704259
263.4069,-0.0001703044
263.5069,-0.0001701782
263.6069,-0.0001700567
263.7069,-0.0001699408
263.8069,-0.0001698222
263.9069,-0.0001697308
264.0069,-0.0001696197
264.1069,-0.0001694785
264.2069,-0.0001693739
264.3069,-0.0001693052
264.4069,-0.0001691376
264.5069,-0.000169066
264.6069,-0.0001689812
264.7069,-0.0001688437
264.8069,-0.0001687062
264.907,-0.0001686432
265.007,-0.0001685302
265.107,-0.0001683814
265.207,-0.0001682721
265.307,-0.0001681789
265.407,-0.0001680715
265.507,-0.0001679519
265.607,-0.0001678182
265.707,-0.0001676892
265.807,-0.0001675978
265.907,-0.0001674839
266.007,-0.000167337
266.107,-0.0001672315
266.207,-0.0001671241
266.307,-0.000166997
266.407,-0.0001668736
266.507,-0.0001667653
266.6071,-0.0001666636
266.7071,-0.0001665252
266.8071,-0.0001664517
266.9071,-0.0001663133
267.0071,-0.0001661824
267.1071,-0.0001660732
267.2071,-0.0001659583
267.3071,-0.0001658227
267.4071,-0.000165737
267.5071,-0.0001656174
267.6071,-0.0001654987
267.7071,-0.0001653866
267.8071,-0.0001652699
267.9071,-0.0001651531
268.0071,-0.0001650297
268.1071,-0.0001649309
268.2072,-0.0001648207
268.3072,-0.0001647011
268.4072,-0.0001646333
268.5072,-0.0001644986
268.6072,-0.0001643489
268.7072,-0.0001642924
268.8072,-0.0001641624
268.9072,-0.0001640315
269.0072,-0.0001639326
269.1072,-0.0001638422
269.2072,-0.0001637066
269.3072,-0.0001636002
269.4072,-0.0001635136
269.5072,-0.000163409
269.6072,-0.0001632725
269.7072,-0.0001631811
269.8073,-0.0001630822
269.9073,-0.0001629523
270.0073,-0.0001628412
270.1073,-0.0001627413
270.2073,-0.0001626001
270.3073,-0.0001625163
270.4073,-0.0001623759
270.5073,-0.0001622563
270.6073,-0.0001621706
270.7073,-0.0001620765
270.8073,-0.0001619183
270.9073,-0.0001618043
271.0073,-0.0001617205
271.1073,-0.0001616028
271.2073,-0.0001614813
271.3073,-0.0001613655
271.4073,-0.0001612619
271.5074,-0.0001611489
271.6074,-0.0001610453
271.7074,-0.0001609172
271.8074,-0.0001607948
271.9074,-0.0001607185
272.0074,-0.0001606017
272.1074,-0.0001604642
272.2074,-0.0001603644
272.3074,-0.0001602768
272.4074,-0.0001601139
272.5074,-0.0001599943
272.6074,-0.000159918
272.7074,-0.0001597805
272.8074,-0.0001596487
272.9074,-0.0001595856
273.0074,-0.0001594509
273.1075,-0.0001593483
273.2075,-0.0001592447
273.3075,-0.000159126
273.4075,-0.000158998
273.5075,-0.0001588868
273.6075,-0.0001587861
273.7075,-0.0001586778
273.8075,-0.0001585779
273.9075,-0.0001584583
274.0075,-0.0001583406
274.1075,-0.0001582173
274.2075,-0.0001581089
274.3075,-0.0001580167
274.4075,-0.0001579055
274.5075,-0.0001577963
274.6075,-0.0001577049
274.7076,-0.0001575552
274.8076,-0.0001574592
274.9076,-0.0001573433
275.0076,-0.0001572379
275.1076,-0.0001571286
275.2076,-0.0001570203
275.3076,-0.0001569073
275.4076,-0.0001568084
275.5076,-0.0001567133
275.6076,-0.0001565918
275.7076,-0.0001565014
275.8076,-0.0001564214
275.9076,-0.0001562773
276.0076,-0.0001561567
276.1076,-0.0001560927
276.2076,-0.0001559628
276.3076,-0.0001558563
276.4077,-0.000155765
276.5077,-0.0001556765
276.6077,-0.0001555474
276.7077,-0.0001554599
276.8077,-0.0001553742
276.9077,-0.000155263
277.0077,-0.0001551689
277.1077,-0.000155037
277.2077,-0.0001549155
277.3077,-0.0001548298
277.4077,-0.0001546952
277.5077,-0.0001545925
277.6077,-0.0001544889
277.7077,-0.0001543901
277.8077,-0.0001542658
277.9077,-0.0001541763
278.0078,-0.0001540793
278.1078,-0.0001539578
278.2078,-0.000153841
278.3078,-0.0001537836
278.4078,-0.000153648
278.5078,-0.0001535293
278.6078,-0.0001534464
278.7078,-0.0001533645
278.8078,-0.000153227
278.9078,-0.0001531112
279.0078,-0.0001530358
279.1078,-0.0001529285
279.2078,-0.0001527919
279.3078,-0.000152742
279.4078,-0.0001526074
279.5078,-0.0001524783
279.6078,-0.0001524058
279.7079,-0.0001523295
279.8079,-0.000152193
279.9079,-0.0001520922
280.0079,-0.0001520122
280.1079,-0.0001519086
280.2079,-0.0001517899
280.3079,-0.0001517118
280.4079,-0.0001515912
280.5079,-0.0001514745
280.6079,-0.0001514198
280.7079,-0.0001512927
280.8079,-0.0001511411
280.9079,-0.0001510968
281.0079,-0.0001509565
281.1079,-0.0001508152
281.2079,-0.0001507503
281.308,-0.0001506429
281.408,-0.0001505073
281.508,-0.0001504084
281.608,-0.0001503312
281.708,-0.0001502257
281.808,-0.000150108
281.908,-0.0001500449
282.008,-0.0001499479
282.108,-0.0001498208
282.208,-0.0001497473
282.308,-0.0001496682
282.408,-0.0001495571
282.508,-0.0001494422
282.608,-0.0001493593
282.708,-0.0001492595
282.808,-0.0001491776
282.9081,-0.0001490683
283.0081,-0.0001489487
283.1081,-0.0001488395
283.2081,-0.000148766
283.3081,-0.0001486436
283.4081,-0.0001485391
283.5081,-0.0001484685
283.6081,-0.0001483423
283.7081,-0.0001482424
283.8081,-0.0001481671
283.9081,-0.0001480541
284.0081,-0.0001479486
284.1081,-0.0001478959
284.2081,-0.0001477838
284.3081,-0.0001476708
284.4081,-0.0001475926
284.5081,-0.0001475088
284.6082,-0.0001473883
284.7082,-0.0001472687
284.8082,-0.0001471952
284.9082,-0.0001470964
285.0082,-0.0001470059
285.1082,-0.0001469118
285.2082,-0.0001467893
285.3082,-0.0001466895
285.4082,-0.000146617
285.5082,-0.0001465134
285.6082,-0.0001463882
285.7082,-0.0001463298
285.8082,-0.0001462111
285.9082,-0.000146099
286.0082,-0.0001460247
286.1082,-0.0001459276
286.2083,-0.000145793
286.3083,-0.0001457233
286.4083,-0.0001456404
286.5083,-0.0001454982
286.6083,-0.0001454107
286.7083,-0.0001453485
286.8083,-0.0001452214
286.9083,-0.0001451084
287.0083,-0.000145049
287.1083,-0.0001449699
287.2083,-0.0001448465
287.3083,-0.0001447599
287.4083,-0.0001446657
287.5083,-0.0001445537
287.6083,-0.0001444717
287.7083,-0.0001443955
287.8083,-0.0001442636
287.9084,-0.0001441572
288.0084,-0.0001440838
288.1084,-0.0001439783
288.2084,-0.0001438709
288.3084,-0.0001438097
288.4084,-0.0001437061
288.5084,-0.0001435696
288.6084,-0.0001434989
288.7084,-0.0001433963
288.8084,-0.000143288
288.9084,-0.0001431674
289.0084,-0.0001431006
289.1084,-0.000142997
289.2084,-0.0001428962
289.3084,-0.0001428181
289.4084,-0.0001427173
289.5085,-0.0001426024
289.6085,-0.0001425318
289.7085,-0.0001424188
289.8085,-0.0001423114
289.9085,-0.0001422587
290.0085,-0.0001421391
290.1085,-0.0001420082
290.2085,-0.0001419573
290.3085,-0.0001418321
290.4085,-0.0001417059
290.5085,-0.0001416371
290.6085,-0.0001415317
290.7085,-0.0001414252
290.8085,-0.0001413216
290.9085,-0.0001412331
291.0085,-0.0001411361
291.1086,-0.0001410033
291.2086,-0.0001409327
291.3086,-0.0001408319
291.4086,-0.0001407067
291.5086,-0.0001406314
291.6086,-0.0001405315
291.7086,-0.0001404355
291.8086,-0.0001403309
291.9086,-0.0001402377
292.0086,-0.0001401633
292.1086,-0.000140056
292.2086,-0.0001399637
292.3086,-0.0001398874
292.4086,-0.0001397857
292.5086,-0.0001396793
292.6086,-0.0001395738
292.7086,-0.0001394956
292.8087,-0.0001393986
292.9087,-0.000139312
293.0087,-0.0001392235
293.1087,-0.0001391293
293.2087,-0.0001390436
293.3087,-0.0001389749
293.4087,-0.0001388892
293.5087,-0.0001388279
293.6087,-0.0001387074
293.7087,-0.0001385982
293.8087,-0.0001385435
293.9087,-0.0001384192
294.0087,-0.0001383156
294.1087,-0.0001382488
294.2087,-0.0001381461
294.3087,-0.0001380218
294.4088,-0.0001379728
294.5088,-0.0001378843
294.6088,-0.000137793
294.7088,-0.0001376894
294.8088,-0.000137631
294.9088,-0.0001375133
295.0088,-0.0001373928
295.1088,-0.0001373428
295.2088,-0.0001372487
295.3088,-0.0001371441
295.4088,-0.0001370707
295.5088,-0.0001369925
295.6088,-0.0001368795
295.7088,-0.0001367891
295.8088,-0.0001366987
295.9088,-0.0001366017
296.0089,-0.0001365348
296.1089,-0.0001364699
296.2089,-0.0001363559
296.3089,-0.0001362777
296.4089,-0.0001362231
296.5089,-0.0001360922
296.6089,-0.0001360084
296.7089,-0.0001359321
296.8089,-0.000135837
296.9089,-0.0001357089
297.0089,-0.0001356515
297.1089,-0.0001355865
297.2089,-0.0001354537
297.3089,-0.0001353417
297.4089,-0.0001353153
297.5089,-0.000135191
297.6089,-0.0001350911
297.709,-0.0001350064
297.809,-0.000134931
297.909,-0.0001348341
298.009,-0.0001347474
298.109,-0.0001346674
298.209,-0.0001345723
298.309,-0.0001344828
298.409,-0.0001343858
298.509,-0.0001343048
298.609,-0.000134205
298.709,-0.0001341334
298.809,-0.0001340741
298.909,-0.0001339743
299.009,-0.0001339244
299.109,-0.0001337972
299.209,-0.0001336946
299.3091,-0.0001335994
299.4091,-0.0001334723
299.5091,-0.0001333706
299.6091,-0.0001332877
299.7091,-0.0001331992
299.8091,-0.0001331116
299.9091,-0.0001330316
300.0091,-0.0001329478
300.1091,-0.0001328206
300.2091,-0.0001327425
300.3091,-0.0001326775
300.4091,-0.0001325739
300.5091,-0.0001324684
300.6091,-0.0001324147
300.7091,-0.000132298
300.8091,-0.000132184
300.9091,-0.0001321275
301.0092,-0.0001320145
301.1092,-0.0001319222
301.2092,-0.0001318469
301.3092,-0.0001317461
301.4092,-0.0001316614
301.5092,-0.0001315926
301.6092,-0.0001314928
301.7092,-0.0001314109
301.8092,-0.0001313346
301.9092,-0.0001312583
302.0092,-0.0001311689
302.1092,-0.0001310803
302.2092,-0.0001310163
302.3092,-0.0001309052
302.4092,-0.0001308138
302.5092,-0.0001307601
302.6093,-0.000130665
302.7093,-0.0001305558
302.8093,-0.000130488
302.9093,-0.000130406
303.0093,-0.0001302761
303.1093,-0.0001302186
303.2093,-0.0001301395
303.3093,-0.0001300378
303.4093,-0.0001299192
303.5093,-0.0001298853
303.6093,-0.0001298241
303.7093,-0.0001296866
303.8093,-0.0001296018
303.9093,-0.0001295283
304.0093,-0.0001294502
304.1093,-0.0001293438
304.2094,-0.0001292854
304.3094,-0.0001291724
304.4094,-0.0001290961
304.5094,-0.0001290481
304.6094,-0.0001289238
304.7094,-0.0001288202
304.8094,-0.0001287985
304.9094,-0.0001287137
305.0094,-0.0001286139
305.1094,-0.0001285612
305.2094,-0.0001284736
305.3094,-0.0001283823
305.4094,-0.0001283229
305.5094,-0.0001282316
305.6094,-0.0001281233
305.7094,-0.0001280545
305.8094,-0.0001279886
305.9095,-0.0001278982
306.0095,-0.0001278153
306.1095,-0.000127757
306.2095,-0.000127675
306.3095,-0.0001275827
306.4095,-0.0001275356
306.5095,-0.0001274368
306.6095,-0.0001273511
306.7095,-0.0001273011
306.8095,-0.0001272079
306.9095,-0.0001271241
307.0095,-0.0001270469
307.1095,-0.000126996
307.2095,-0.000126883
307.3095,-0.0001267898
307.4095,-0.0001267371
307.5096,-0.0001266354
307.6096,-0.0001265308
307.7096,-0.000126479
307.8096,-0.0001263877
307.9096,-0.0001262935
308.0096,-0.0001262389
308.1096,-0.0001261391
308.2096,-0.0001260553
308.3096,-0.0001259629
308.4096,-0.0001258942
308.5096,-0.0001258236
308.6096,-0.0001257238
308.7096,-0.0001256974
308.8096,-0.0001256004
308.9096,-0.000125478
309.0096,-0.0001254205
309.1096,-0.0001253358
309.2097,-0.0001252228
309.3097,-0.0001251436
309.4097,-0.0001250984
309.5097,-0.0001249845
309.6097,-0.0001248884
309.7097,-0.0001248423
309.8097,-0.0001247509
309.9097,-0.0001246784
310.0097,-0.0001245927
310.1097,-0.0001245052
310.2097,-0.0001244468
310.3097,-0.0001243639
310.4097,-0.0001242631
310.5097,-0.0001241982
310.6097,-0.0001241473
310.7097,-0.000124056
310.8098,-0.0001239495
310.9098,-0.0001238733
311.0098,-0.0001237857
311.1098,-0.0001236698
311.2098,-0.0001236001
311.3098,-0.0001235371
311.4098,-0.0001234175
311.5098,-0.000123328
311.6098,-0.0001232865
311.7098,-0.0001231943
311.8098,-0.0001230954
311.9098,-0.0001230332
312.0098,-0.0001229664
312.1098,-0.0001228618
312.2098,-0.000122795
312.3098,-0.0001227422
312.4099,-0.0001226273
312.5099,-0.0001225558
312.6099,-0.0001224823
312.7099,-0.0001223646
312.8099,-0.0001222921
312.9099,-0.0001222026
313.0099,-0.0001221329
313.1099,-0.0001220209
313.2099,-0.0001219427
313.3099,-0.0001218513
313.4099,-0.0001217722
313.5099,-0.0001217101
313.6099,-0.0001215924
313.7099,-0.0001215057
313.8099,-0.0001214728
313.9099,-0.0001213758
314.0099,-0.0001212778
314.11,-0.0001211968
314.21,-0.0001211309
314.31,-0.0001210076
314.41,-0.000120935
314.51,-0.0001208776
314.61,-0.0001207693
314.71,-0.0001206874
314.81,-0.0001206318
314.91,-0.0001205386
315.01,-0.0001204472
315.11,-0.0001203907
315.21,-0.0001203314
315.31,-0.0001202419
315.41,-0.0001201572
315.51,-0.0001201176
315.61,-0.0001200187
315.7101,-0.0001199265
315.8101,-0.0001199039
315.9101,-0.0001198172
316.0101,-0.0001197193
316.1101,-0.0001196609
316.2101,-0.0001195742
316.3101,-0.0001194933
316.4101,-0.0001194113
316.5101,-0.0001193454
316.6101,-0.0001192512
316.7101,-0.0001191853
316.8101,-0.0001191053
316.9101,-0.0001189923
317.0101,-0.000118932
317.1101,-0.0001188369
317.2101,-0.0001187738
317.3102,-0.0001186918
317.4102,-0.0001186156
317.5102,-0.0001184931
317.6102,-0.0001184319
317.7102,-0.0001183867
317.8102,-0.0001182841
317.9102,-0.000118172
318.0102,-0.0001181485
318.1102,-0.0001180901
318.2102,-0.0001179761
318.3102,-0.0001179338
318.4102,-0.0001178594
318.5102,-0.0001177576
318.6102,-0.0001176851
318.7102,-0.0001176428
318.8102,-0.0001175561
318.9102,-0.0001174488
319.0103,-0.0001173988
319.1103,-0.0001173348
319.2103,-0.0001172293
319.3103,-0.0001171766
319.4103,-0.0001171135
319.5103,-0.0001170005
319.6103,-0.0001169421
319.7103,-0.0001168762
319.8103,-0.0001168056
319.9103,-0.0001167199
320.0103,-0.0001166587
320.1103,-0.0001165635
320.2103,-0.0001164703
320.3103,-0.0001164034
320.4103,-0.0001163385
320.5103,-0.0001162546
320.6104,-0.0001161784
320.7104,-0.0001161256
320.8104,-0.0001160211
320.9104,-0.0001159401
321.0104,-0.000115877
321.1104,-0.0001157866
321.2104,-0.0001157226
321.3104,-0.0001156566
321.4104,-0.0001155512
321.5104,-0.0001154937
321.6104,-0.0001154448
321.7104,-0.0001153421
321.8104,-0.0001152573
321.9104,-0.0001152046
322.0104,-0.000115182
322.1104,-0.0001150464
322.2104,-0.0001149965
322.3105,-0.0001149635
322.4105,-0.0001148439
322.5105,-0.0001147827
322.6105,-0.0001147102
322.7105,-0.0001146556
322.8105,-0.0001145501
322.9105,-0.0001144983
323.0105,-0.0001144154
323.1105,-0.0001143514
323.2105,-0.0001142732
323.3105,-0.0001142054
323.4105,-0.0001141433
323.5105,-0.0001140661
323.6105,-0.0001139888
323.7105,-0.0001139323
323.8105,-0.0001138852
323.9106,-0.0001137873
324.0106,-0.0001136884
324.1106,-0.0001136847
324.2106,-0.0001135679
324.3106,-0.0001134605
324.4106,-0.0001134247
324.5106,-0.0001133325
324.6106,-0.000113226
324.7106,-0.0001131639
324.8106,-0.0001131102
324.9106,-0.0001129925
325.0106,-0.0001129341
325.1106,-0.0001128898
325.2106,-0.0001127938
325.3106,-0.0001126883
325.4106,-0.0001126666
325.5107,-0.0001125998
325.6107,-0.000112483
325.7107,-0.0001124199
325.8107,-0.0001123587
325.9107,-0.0001122834
326.0107,-0.0001121798
326.1107,-0.000112128
326.2107,-0.0001120602
326.3107,-0.0001119622
326.4107,-0.0001118907
326.5107,-0.0001118398
326.6107,-0.0001117343
326.7107,-0.0001116684
326.8107,-0.0001115968
326.9107,-0.000111498
327.0107,-0.0001114452
327.1107,-0.0001113501
327.2108,-0.000111271
327.3108,-0.0001112032
327.4108,-0.0001111514
327.5108,-0.0001110412
327.6108,-0.0001109819
327.7108,-0.0001109339
327.8108,-0.0001108557
327.9108,-0.0001107653
328.0108,-0.0001107173
328.1108,-0.0001106419
328.2108,-0.0001105496
328.3108,-0.0001104771
328.4108,-0.0001104018
328.5108,-0.0001103368
328.6108,-0.0001102869
328.7108,-0.000110221
328.8109,-0.0001101202
328.9109,-0.0001100703
329.0109,-0.000109995
329.1109,-0.0001099206
329.2109,-0.0001098612
329.3109,-0.0001097981
329.4109,-0.0001097445
329.5109,-0.0001096606
329.6109,-0.0001095947
329.7109,-0.000109526
329.8109,-0.0001094601
329.9109,-0.0001093819
330.0109,-0.0001093075
330.1109,-0.0001092246
330.2109,-0.0001091502
330.3109,-0.0001090598
330.4109,-0.0001090118
330.511,-0.0001089393
330.611,-0.0001088602
330.711,-0.0001087773
330.811,-0.0001087208
330.911,-0.000108653
331.011,-0.0001085701
331.111,-0.0001084985
331.211,-0.0001084345
331.311,-0.0001083601
331.411,-0.000108298
331.511,-0.0001082377
331.611,-0.000108151
331.711,-0.0001080889
331.811,-0.0001080201
331.911,-0.0001079439
332.011,-0.0001078714
332.1111,-0.0001077941
332.2111,-0.0001077404
332.3111,-0.0001076717
332.4111,-0.0001076077
332.5111,-0.0001075747
332.6111,-0.0001074984
332.7111,-0.0001073958
332.8111,-0.0001073459
332.9111,-0.0001072611
333.0111,-0.0001071622
333.1111,-0.0001070888
333.2111,-0.0001070379
333.3111,-0.000106924
333.4111,-0.0001068505
333.5111,-0.0001067902
333.6111,-0.0001067375
333.7112,-0.0001066283
333.8112,-0.0001065981
333.9112,-0.0001065454
334.0112,-0.0001064474
334.1112,-0.0001063778
334.2112,-0.0001063081
334.3112,-0.0001062356
334.4112,-0.0001061376
334.5112,-0.0001060821
334.6112,-0.0001060312
334.7112,-0.000105938
334.8112,-0.0001058711
334.9112,-0.000105824
335.0112,-0.0001057299
335.1112,-0.0001056498
335.2112,-0.0001056008
335.3112,-0.0001055293
335.4113,-0.0001054511
335.5113,-0.0001054021
335.6113,-0.0001053381
335.7113,-0.0001052778
335.8113,-0.0001052194
335.9113,-0.0001051516
336.0113,-0.0001050509
336.1113,-0.0001049934
336.2113,-0.0001049492
336.3113,-0.0001048456
336.4113,-0.0001048173
336.5113,-0.0001047552
336.6113,-0.0001046525
336.7113,-0.0001045913
336.8113,-0.0001045339
336.9113,-0.0001044538
337.0114,-0.0001043634
337.1114,-0.0001042937
337.2114,-0.0001042636
337.3114,-0.000104159
337.4114,-0.0001041073
337.5114,-0.0001040573
337.6114,-0.0001039651
337.7114,-0.0001038822
337.8114,-0.0001038276
337.9114,-0.0001037532
338.0114,-0.0001036976
338.1114,-0.0001036006
338.2114,-0.0001035526
338.3114,-0.0001034942
338.4114,-0.0001034141
338.5114,-0.0001033586
338.6115,-0.0001033219
338.7115,-0.0001032371
338.8115,-0.0001031514
338.9115,-0.0001031052
339.0115,-0.0001030318
339.1115,-0.0001029583
339.2115,-0.0001028868
339.3115,-0.0001028529
339.4115,-0.0001027766
339.5115,-0.0001027012
339.6115,-0.0001026419
339.7115,-0.0001025958
339.8115,-0.0001025138
339.9115,-0.0001024376
340.0115,-0.0001023905
340.1115,-0.0001023038
340.2115,-0.0001022436
340.3116,-0.0001021946
340.4116,-0.0001021475
340.5116,-0.0001020477
340.6116,-0.00010201
340.7116,-0.0001019441
340.8116,-0.000101881
340.9116,-0.0001017972
341.0116,-0.0001017313
341.1116,-0.0001017002
341.2116,-0.0001016126
341.3116,-0.0001015646
341.4116,-0.0001015241
341.5116,-0.000101413
341.6116,-0.0001013809
341.7116,-0.0001013376
341.8116,-0.000101251
341.9117,-0.0001011982
342.0117,-0.0001011201
342.1117,-0.0001010607
342.2117,-0.0001010071
342.3117,-0.0001009534
342.4117,-0.0001008668
342.5117,-0.0001008093
342.6117,-0.00010075
342.7117,-0.0001006765
342.8117,-0.000100604
342.9117,-0.0001005871
343.0117,-0.0001005193
343.1117,-0.0001004241
343.2117,-0.0001004373
343.3117,-0.0001003469
343.4117,-0.0001002678
343.5117,-0.000100249
343.6118,-0.0001001793
343.7118,-0.0001000889
343.8118,-0.0001000399
343.9118,-9.997305E-05
344.0118,-9.989206E-05
344.1118,-9.982614E-05
344.2118,-9.977905E-05
344.3118,-9.971314E-05
344.4118,-9.961708E-05
344.5118,-9.959353E-05
344.6118,-9.950312E-05
344.7118,-9.941178E-05
344.8118,-9.939013E-05
344.9118,-9.930537E-05
345.0118,-9.922909E-05
345.1118,-9.916788E-05
345.2119,-9.912079E-05
345.3119,-9.903791E-05
345.4119,-9.896822E-05
345.5119,-9.892019E-05
345.6119,-9.888159E-05
345.7119,-9.877517E-05
345.8119,-9.875633E-05
345.9119,-9.866875E-05
346.0119,-9.859435E-05
346.1119,-9.853503E-05
346.2119,-9.849171E-05
346.3119,-9.842107E-05
346.4119,-9.833632E-05
346.5119,-9.829488E-05
346.6119,-9.823932E-05
346.7119,-9.817622E-05
346.812,-9.81216E-05
346.912,-9.806509E-05
347.012,-9.794927E-05
347.112,-9.791442E-05
347.212,-9.785039E-05
347.312,-9.777693E-05
347.412,-9.77176E-05
347.512,-9.764602E-05
347.612,-9.759989E-05
347.712,-9.7501E-05
347.812,-9.747463E-05
347.912,-9.740118E-05
348.012,-9.73136E-05
348.112,-9.728253E-05
348.212,-9.722602E-05
348.312,-9.711301E-05
348.412,-9.707628E-05
348.5121,-9.704426E-05
348.6121,-9.694444E-05
348.7121,-9.68804E-05
348.8121,-9.683238E-05
348.9121,-9.676645E-05
349.0121,-9.669865E-05
349.1121,-9.665533E-05
349.2121,-9.662143E-05
349.3121,-9.654232E-05
349.4121,-9.650276E-05
349.5121,-9.646227E-05
349.6121,-9.637187E-05
349.7121,-9.634456E-05
349.8121,-9.626734E-05
349.9121,-9.620519E-05
350.0121,-9.613832E-05
350.1122,-9.606015E-05
350.2122,-9.600554E-05
350.3122,-9.592078E-05
350.4122,-9.588782E-05
350.5122,-9.581907E-05
350.6122,-9.576068E-05
350.7122,-9.572301E-05
350.8122,-9.565804E-05
350.9122,-9.558552E-05
351.0122,-9.556104E-05
351.1122,-9.548947E-05
351.2122,-9.541224E-05
351.3122,-9.534162E-05
351.4122,-9.529359E-05
351.5122,-9.522484E-05
351.6122,-9.512973E-05
351.7122,-9.508452E-05
351.8123,-9.506852E-05
351.9123,-9.495645E-05
352.0123,-9.493573E-05
352.1123,-9.486415E-05
352.2123,-9.480106E-05
352.3123,-9.473326E-05
352.4123,-9.470124E-05
352.5123,-9.46259E-05
352.6123,-9.455338E-05
352.7123,-9.449876E-05
352.8123,-9.44432E-05
352.9123,-9.440647E-05
353.0123,-9.434526E-05
353.1123,-9.426333E-05
353.2123,-9.42219E-05
353.3123,-9.416728E-05
353.4124,-9.40778E-05
353.5124,-9.403355E-05
353.6124,-9.400718E-05
353.7124,-9.392054E-05
353.8124,-9.385933E-05
353.9124,-9.383861E-05
354.0124,-9.378116E-05
354.1124,-9.370206E-05
354.2124,-9.368888E-05
354.3124,-9.361353E-05
354.4124,-9.355232E-05
354.5124,-9.348828E-05
354.6124,-9.346003E-05
354.7124,-9.338376E-05
354.8124,-9.330935E-05
354.9124,-9.326604E-05
355.0125,-9.321519E-05
355.1125,-9.312667E-05
355.2125,-9.307957E-05
355.3125,-9.300989E-05
355.4125,-9.295809E-05
355.5125,-9.289217E-05
355.6125,-9.283191E-05
355.7125,-9.278292E-05
355.8125,-9.272736E-05
355.9125,-9.263696E-05
356.0125,-9.259082E-05
356.1125,-9.255126E-05
356.2125,-9.247027E-05
356.3125,-9.239589E-05
356.4125,-9.235162E-05
356.5125,-9.231018E-05
356.6125,-9.223202E-05
356.7126,-9.215856E-05
356.8126,-9.213595E-05
356.9126,-9.207663E-05
357.0126,-9.197963E-05
357.1126,-9.197398E-05
357.2126,-9.190806E-05
357.3126,-9.181577E-05
357.4126,-9.179694E-05
357.5126,-9.172348E-05
357.6126,-9.166133E-05
357.7126,-9.16133E-05
357.8126,-9.155303E-05
357.9126,-9.147204E-05
358.0126,-9.139859E-05
358.1126,-9.13449E-05
358.2126,-9.129028E-05
358.3127,-9.121589E-05
358.4127,-9.116033E-05
358.5127,-9.108123E-05
358.6127,-9.101436E-05
358.7127,-9.099364E-05
358.8127,-9.092772E-05
358.9127,-9.085803E-05
359.0127,-9.08213E-05
359.1127,-9.076103E-05
359.2127,-9.068098E-05
359.3127,-9.064426E-05
359.4127,-9.058211E-05
359.5127,-9.052937E-05
359.6127,-9.046816E-05
359.7127,-9.041541E-05
359.8127,-9.033349E-05
359.9128,-9.031277E-05
360.0128,-9.024779E-05
360.1128,-9.015268E-05
360.2128,-9.011501E-05
360.3128,-9.009617E-05
360.4128,-9.004249E-05
360.5128,-8.994644E-05
360.6128,-8.99502E-05
360.7128,-8.98645E-05
360.8128,-8.977034E-05
360.9128,-8.974868E-05
361.0128,-8.968087E-05
361.1128,-8.960553E-05
361.2128,-8.95462E-05
361.3128,-8.950005E-05
361.4128,-8.941718E-05
361.5128,-8.935973E-05
361.6129,-8.932396E-05
361.7129,-8.923637E-05
361.8129,-8.916857E-05
361.9129,-8.912995E-05
362.0129,-8.905838E-05
362.1129,-8.898022E-05
362.2129,-8.896326E-05
362.3129,-8.889641E-05
362.4129,-8.881071E-05
362.5129,-8.87834E-05
362.6129,-8.872595E-05
362.7129,-8.863366E-05
362.8129,-8.859411E-05
362.9129,-8.856209E-05
363.0129,-8.849241E-05
363.1129,-8.842742E-05
363.213,-8.839634E-05
363.313,-8.833137E-05
363.413,-8.825886E-05
363.513,-8.82146E-05
363.613,-8.817221E-05
363.713,-8.809876E-05
363.813,-8.805732E-05
363.913,-8.804226E-05
364.013,-8.794243E-05
364.113,-8.791041E-05
364.213,-8.786615E-05
364.313,-8.780965E-05
364.413,-8.774278E-05
364.513,-8.768251E-05
364.613,-8.764014E-05
364.713,-8.755538E-05
364.813,-8.748098E-05
364.9131,-8.745273E-05
365.0131,-8.738964E-05
365.1131,-8.732183E-05
365.2131,-8.728981E-05
365.3131,-8.722767E-05
365.4131,-8.716173E-05
365.5131,-8.709487E-05
365.6131,-8.704967E-05
365.7131,-8.698281E-05
365.8131,-8.691312E-05
365.9131,-8.686132E-05
366.0131,-8.683496E-05
366.1131,-8.67502E-05
366.2131,-8.668804E-05
366.3131,-8.665321E-05
366.4131,-8.661648E-05
366.5132,-8.654679E-05
366.6132,-8.649499E-05
366.7132,-8.643849E-05
366.8132,-8.636786E-05
366.9132,-8.630571E-05
367.0132,-8.628592E-05
367.1132,-8.626239E-05
367.2132,-8.616538E-05
367.3132,-8.612677E-05
367.4132,-8.606462E-05
367.5132,-8.601376E-05
367.6132,-8.595349E-05
367.7132,-8.5913E-05
367.8132,-8.585933E-05
367.9132,-8.578022E-05
368.0132,-8.573972E-05
368.1133,-8.570864E-05
368.2133,-8.563424E-05
368.3133,-8.557963E-05
368.4133,-8.553536E-05
368.5133,-8.545438E-05
368.6133,-8.542048E-05
368.7133,-8.53555E-05
368.8133,-8.530841E-05
368.9133,-8.527357E-05
369.0133,-8.52359E-05
369.1133,-8.515679E-05
369.2133,-8.511818E-05
369.3133,-8.507392E-05
369.4133,-8.5008E-05
369.5133,-8.494207E-05
369.6133,-8.492041E-05
369.7133,-8.485826E-05
369.8134,-8.476691E-05
369.9134,-8.473583E-05
370.0134,-8.466897E-05
370.1134,-8.459646E-05
370.2134,-8.455408E-05
370.3134,-8.449193E-05
370.4134,-8.442978E-05
370.5134,-8.437986E-05
370.6134,-8.431394E-05
370.7134,-8.425649E-05
370.8134,-8.420376E-05
370.9134,-8.416986E-05
371.0134,-8.410864E-05
371.1134,-8.403895E-05
371.2134,-8.400034E-05
371.3134,-8.393913E-05
371.4135,-8.388356E-05
371.5135,-8.383743E-05
371.6135,-8.376774E-05
371.7135,-8.371123E-05
371.8135,-8.369899E-05
371.9135,-8.364437E-05
372.0135,-8.35841E-05
372.1135,-8.351159E-05
372.2135,-8.345791E-05
372.3135,-8.339951E-05
372.4135,-8.336185E-05
372.5135,-8.331853E-05
372.6135,-8.323189E-05
372.7135,-8.317539E-05
372.8135,-8.315938E-05
372.9135,-8.309627E-05
373.0135,-8.302659E-05
373.1136,-8.299269E-05
373.2136,-8.296444E-05
373.3136,-8.285332E-05
373.4136,-8.282412E-05
373.5136,-8.279964E-05
373.6136,-8.273183E-05
373.7136,-8.266402E-05
373.8136,-8.265555E-05
373.9136,-8.259434E-05
374.0136,-8.250675E-05
374.1136,-8.24964E-05
374.2136,-8.245685E-05
374.3136,-8.235702E-05
374.4136,-8.234572E-05
374.5136,-8.229298E-05
374.6136,-8.2212E-05
374.7137,-8.218751E-05
374.8137,-8.21489E-05
374.9137,-8.208297E-05
375.0137,-8.200576E-05
375.1137,-8.198786E-05
375.2137,-8.192948E-05
375.3137,-8.184943E-05
375.4137,-8.182306E-05
375.5137,-8.180516E-05
375.6137,-8.171947E-05
375.7137,-8.168275E-05
375.8137,-8.164695E-05
375.9137,-8.155278E-05
376.0137,-8.152453E-05
376.1137,-8.148122E-05
376.2137,-8.140493E-05
376.3138,-8.13569E-05
376.4138,-8.130888E-05
376.5138,-8.126367E-05
376.6138,-8.121093E-05
376.7138,-8.115443E-05
376.8138,-8.109039E-05
376.9138,-8.104519E-05
377.0138,-8.101223E-05
377.1138,-8.095102E-05
377.2138,-8.089734E-05
377.3138,-8.088227E-05
377.4138,-8.080505E-05
377.5138,-8.075513E-05
377.6138,-8.070711E-05
377.7138,-8.064307E-05
377.8138,-8.057245E-05
377.9138,-8.05263E-05
378.0139,-8.049239E-05
378.1139,-8.042271E-05
378.2139,-8.038221E-05
378.3139,-8.033418E-05
378.4139,-8.026732E-05
378.5139,-8.021647E-05
378.6139,-8.017221E-05
378.7139,-8.012701E-05
378.8139,-8.005731E-05
378.9139,-8.001964E-05
379.0139,-7.997915E-05
379.1139,-7.988592E-05
379.2139,-7.988497E-05
379.3139,-7.983412E-05
379.4139,-7.973995E-05
379.5139,-7.972112E-05
379.614,-7.969569E-05
379.714,-7.962788E-05
379.814,-7.956762E-05
379.914,-7.95356E-05
380.014,-7.947815E-05
380.114,-7.940563E-05
380.214,-7.936043E-05
380.314,-7.932559E-05
380.414,-7.927379E-05
380.514,-7.922765E-05
380.614,-7.919186E-05
380.714,-7.912124E-05
380.814,-7.908357E-05
380.914,-7.901293E-05
381.014,-7.894984E-05
381.114,-7.893571E-05
381.2141,-7.88519E-05
381.3141,-7.877091E-05
381.4141,-7.869746E-05
381.5141,-7.865978E-05
381.6141,-7.860139E-05
381.7141,-7.852418E-05
381.8141,-7.851005E-05
381.9141,-7.845166E-05
382.0141,-7.837162E-05
382.1141,-7.836219E-05
382.2141,-7.82991E-05
382.3141,-7.821717E-05
382.4141,-7.82021E-05
382.5141,-7.814278E-05
382.6141,-7.806555E-05
382.7141,-7.800622E-05
382.8141,-7.797232E-05
382.9142,-7.793654E-05
383.0142,-7.78499E-05
383.1142,-7.7832E-05
383.2142,-7.779245E-05
383.3142,-7.770581E-05
383.4142,-7.766909E-05
383.5142,-7.765119E-05
383.6142,-7.756832E-05
383.7142,-7.749393E-05
383.8142,-7.747791E-05
383.9142,-7.743271E-05
384.0142,-7.733853E-05
384.1142,-7.730087E-05
384.2142,-7.728957E-05
384.3142,-7.718127E-05
384.4142,-7.715961E-05
384.5143,-7.713041E-05
384.6143,-7.70466E-05
384.7143,-7.698822E-05
384.8143,-7.697126E-05
384.9143,-7.689781E-05
385.0143,-7.683471E-05
385.1143,-7.684601E-05
385.2143,-7.677632E-05
385.3143,-7.671511E-05
385.4143,-7.668686E-05
385.5143,-7.664542E-05
385.6143,-7.657197E-05
385.7143,-7.652865E-05
385.8143,-7.649662E-05
385.9143,-7.642412E-05
386.0143,-7.639021E-05
386.1143,-7.636196E-05
386.2144,-7.628191E-05
386.3144,-7.623388E-05
386.4144,-7.619716E-05
386.5144,-7.612465E-05
386.6144,-7.607285E-05
386.7144,-7.604271E-05
386.8144,-7.599751E-05
386.9144,-7.594572E-05
387.0144,-7.593818E-05
387.1144,-7.586473E-05
387.2144,-7.580728E-05
387.3144,-7.578939E-05
387.4144,-7.572629E-05
387.5144,-7.568203E-05
387.6144,-7.562929E-05
387.7144,-7.556997E-05
387.8145,-7.552759E-05
387.9145,-7.547296E-05
388.0145,-7.544378E-05
388.1145,-7.539104E-05
388.2145,-7.536373E-05
388.3145,-7.528367E-05
388.4145,-7.525354E-05
388.5145,-7.521776E-05
388.6145,-7.516408E-05
388.7145,-7.511322E-05
388.8145,-7.506707E-05
388.9145,-7.505578E-05
389.0145,-7.500587E-05
389.1145,-7.494842E-05
389.2145,-7.490793E-05
389.3145,-7.489286E-05
389.4146,-7.481187E-05
389.5146,-7.473466E-05
389.6146,-7.474218E-05
389.7146,-7.469791E-05
389.8146,-7.461317E-05
389.9146,-7.458303E-05
390.0146,-7.454818E-05
390.1146,-7.448321E-05
390.2146,-7.441822E-05
390.3146,-7.440786E-05
390.4146,-7.435701E-05
390.5146,-7.431275E-05
390.6146,-7.425153E-05
390.7146,-7.42167E-05
390.8146,-7.419032E-05
390.9146,-7.416396E-05
391.0146,-7.406884E-05
391.1147,-7.403589E-05
391.2147,-7.399727E-05
391.3147,-7.394359E-05
391.4147,-7.390404E-05
391.5147,-7.388144E-05
391.6147,-7.379574E-05
391.7147,-7.374206E-05
391.8147,-7.374301E-05
391.9147,-7.366485E-05
392.0147,-7.360739E-05
392.1147,-7.358856E-05
392.2147,-7.354524E-05
392.3147,-7.345389E-05
392.4147,-7.343035E-05
392.5147,-7.340022E-05
392.6147,-7.330699E-05
392.7148,-7.329756E-05
392.8148,-7.32712E-05
392.9148,-7.319492E-05
393.0148,-7.313182E-05
393.1148,-7.313559E-05
393.2148,-7.309697E-05
393.3148,-7.301693E-05
393.4148,-7.300374E-05
393.5148,-7.29689E-05
393.6148,-7.290203E-05
393.7148,-7.288038E-05
393.8148,-7.281257E-05
393.9148,-7.276266E-05
394.0148,-7.269109E-05
394.1148,-7.265907E-05
394.2148,-7.262988E-05
394.3148,-7.255077E-05
394.4149,-7.254325E-05
394.5149,-7.247732E-05
394.6149,-7.240763E-05
394.7149,-7.239256E-05
394.8149,-7.234831E-05
394.9149,-7.230027E-05
395.0149,-7.223718E-05
395.1149,-7.221081E-05
395.2149,-7.216654E-05
395.3149,-7.2127E-05
395.4149,-7.206767E-05
395.5149,-7.203565E-05
395.6149,-7.201211E-05
395.7149,-7.195749E-05
395.8149,-7.191605E-05
395.9149,-7.187085E-05
396.015,-7.183788E-05
396.115,-7.177479E-05
396.215,-7.175312E-05
396.315,-7.173335E-05
396.415,-7.170039E-05
396.515,-7.16354E-05
396.615,-7.161564E-05
396.715,-7.155065E-05
396.815,-7.151487E-05
396.915,-7.148662E-05
397.015,-7.142635E-05
397.115,-7.138114E-05
397.215,-7.134348E-05
397.315,-7.13124E-05
397.415,-7.125401E-05
397.515,-7.118996E-05
397.6151,-7.118715E-05
397.7151,-7.110993E-05
397.8151,-7.107038E-05
397.9151,-7.104965E-05
398.0151,-7.100446E-05
398.1151,-7.094042E-05
398.2151,-7.091217E-05
398.3151,-7.086508E-05
398.4151,-7.08161E-05
398.5151,-7.076431E-05
398.6151,-7.075677E-05
398.7151,-7.070122E-05
398.8151,-7.064E-05
398.9151,-7.063529E-05
399.0151,-7.056372E-05
399.1151,-7.049309E-05
399.2151,-7.050628E-05
399.3152,-7.045166E-05
399.4152,-7.039044E-05
399.5152,-7.03556E-05
399.6152,-7.031792E-05
399.7152,-7.028214E-05
399.8152,-7.019833E-05
399.9152,-7.018985E-05
400.0152,-7.015502E-05
400.1152,-7.008532E-05
400.2152,-7.006648E-05
400.3152,-7.003353E-05
400.4152,-6.999115E-05
400.5152,-6.992428E-05
400.6152,-6.988944E-05
400.7152,-6.986213E-05
400.8152,-6.98367E-05
400.9153,-6.978773E-05
401.0153,-6.972275E-05
401.1153,-6.966719E-05
401.2153,-6.962765E-05
401.3153,-6.958714E-05
401.4153,-6.953252E-05
401.5153,-6.952216E-05
401.6153,-6.948732E-05
401.7153,-6.942705E-05
401.8153,-6.943553E-05
401.9153,-6.937337E-05
402.0153,-6.929145E-05
402.1153,-6.930933E-05
402.2153,-6.923211E-05
402.3153,-6.914171E-05
402.4153,-6.911628E-05
402.5154,-6.905977E-05
402.6154,-6.897785E-05
402.7154,-6.893169E-05
402.8154,-6.88978E-05
402.9154,-6.887331E-05
403.0154,-6.879326E-05
403.1154,-6.877349E-05
403.2154,-6.874995E-05
403.3154,-6.867273E-05
403.4154,-6.86699E-05
403.5154,-6.862564E-05
403.6154,-6.857007E-05
403.7154,-6.85277E-05
403.8154,-6.849097E-05
403.9154,-6.84354E-05
404.0154,-6.83789E-05
404.1154,-6.834029E-05
404.2155,-6.832334E-05
404.3155,-6.824801E-05
404.4155,-6.822164E-05
404.5155,-6.819244E-05
404.6155,-6.812369E-05
404.7155,-6.810863E-05
404.8155,-6.805024E-05
404.9155,-6.79928E-05
405.0155,-6.796172E-05
405.1155,-6.791463E-05
405.2155,-6.789485E-05
405.3155,-6.785436E-05
405.4155,-6.780633E-05
405.5155,-6.775077E-05
405.6155,-6.772628E-05
405.7155,-6.768956E-05
405.8156,-6.762175E-05
405.9156,-6.760198E-05
406.0156,-6.757749E-05
406.1156,-6.754547E-05
406.2156,-6.747861E-05
406.3156,-6.746354E-05
406.4156,-6.742869E-05
406.5156,-6.73769E-05
406.6156,-6.731852E-05
406.7156,-6.732417E-05
406.8156,-6.727991E-05
406.9156,-6.71782E-05
407.0156,-6.719044E-05
407.1156,-6.713488E-05
407.2156,-6.707179E-05
407.3156,-6.704729E-05
407.4156,-6.703505E-05
407.5157,-6.694465E-05
407.6157,-6.690227E-05
407.7157,-6.690792E-05
407.8157,-6.683729E-05
407.9157,-6.678361E-05
408.0157,-6.67968E-05
408.1157,-6.671957E-05
408.2157,-6.667249E-05
408.3157,-6.665554E-05
408.4157,-6.663576E-05
408.5157,-6.656231E-05
408.6157,-6.652934E-05
408.7157,-6.649073E-05
408.8157,-6.643893E-05
408.9157,-6.643046E-05
409.0157,-6.638055E-05
409.1158,-6.632216E-05
409.2158,-6.631745E-05
409.3158,-6.630521E-05
409.4158,-6.623175E-05
409.5158,-6.619879E-05
409.6158,-6.618843E-05
409.7158,-6.613099E-05
409.8158,-6.608861E-05
409.9158,-6.608485E-05
410.0158,-6.604624E-05
410.1158,-6.597373E-05
410.2158,-6.597467E-05
410.3158,-6.592664E-05
410.4158,-6.586919E-05
410.5158,-6.58626E-05
410.6158,-6.580797E-05
410.7159,-6.573923E-05
410.8159,-6.573546E-05
410.9159,-6.570156E-05
411.0159,-6.562905E-05
411.1159,-6.559703E-05
411.2159,-6.559514E-05
411.3159,-6.55556E-05
411.4159,-6.548873E-05
411.5159,-6.55198E-05
411.6159,-6.54567E-05
411.7159,-6.539268E-05
411.8159,-6.541058E-05
411.9159,-6.534276E-05
412.0159,-6.527967E-05
412.1159,-6.523164E-05
412.2159,-6.52015E-05
412.3159,-6.514783E-05
412.416,-6.512899E-05
412.516,-6.507154E-05
412.616,-6.501787E-05
412.716,-6.498302E-05
412.816,-6.496796E-05
412.916,-6.491051E-05
413.016,-6.489732E-05
413.116,-6.487095E-05
413.216,-6.482011E-05
413.316,-6.475701E-05
413.416,-6.472687E-05
413.516,-6.466566E-05
413.616,-6.461387E-05
413.716,-6.462328E-05
413.816,-6.456112E-05
413.916,-6.451404E-05
414.0161,-6.447731E-05
414.1161,-6.446884E-05
414.2161,-6.439632E-05
414.3161,-6.436712E-05
414.4161,-6.435206E-05
414.5161,-6.429462E-05
414.6161,-6.419761E-05
414.7161,-6.421457E-05
414.8161,-6.414771E-05
414.9161,-6.407802E-05
415.0161,-6.404506E-05
415.1161,-6.399985E-05
415.2161,-6.398385E-05
415.3161,-6.390944E-05
415.4161,-6.391039E-05
415.5161,-6.388025E-05
415.6161,-6.380585E-05
415.7162,-6.381433E-05
415.8162,-6.374653E-05
415.9162,-6.368814E-05
416.0162,-6.366082E-05
416.1162,-6.363446E-05
416.2162,-6.359114E-05
416.3162,-6.353088E-05
416.4162,-6.351015E-05
416.5162,-6.347625E-05
416.6162,-6.343952E-05
416.7162,-6.341221E-05
416.8162,-6.337171E-05
416.9162,-6.334158E-05
417.0162,-6.330392E-05
417.1162,-6.322952E-05
417.2162,-6.322669E-05
417.3163,-6.319468E-05
417.4163,-6.314194E-05
417.5163,-6.309296E-05
417.6163,-6.309956E-05
417.7163,-6.304399E-05
417.8163,-6.299126E-05
417.9163,-6.297432E-05
418.0163,-6.293852E-05
418.1163,-6.287919E-05
418.2163,-6.284341E-05
418.3163,-6.283117E-05
418.4163,-6.278126E-05
418.5163,-6.270026E-05
418.6163,-6.27351E-05
418.7163,-6.268802E-05
418.8163,-6.260232E-05
418.9164,-6.260986E-05
419.0164,-6.257219E-05
419.1164,-6.248744E-05
419.2164,-6.245165E-05
419.3164,-6.246389E-05
419.4164,-6.23716E-05
419.5164,-6.233581E-05
419.6164,-6.234334E-05
419.7164,-6.229155E-05
419.8164,-6.223128E-05
419.9164,-6.220774E-05
420.0164,-6.221621E-05
420.1164,-6.212958E-05
420.2164,-6.211357E-05
420.3164,-6.207966E-05
420.4164,-6.203917E-05
420.5164,-6.202222E-05
420.6165,-6.197701E-05
420.7165,-6.194312E-05
420.8165,-6.187343E-05
420.9165,-6.18414E-05
421.0165,-6.181598E-05
421.1165,-6.177925E-05
421.2165,-6.173499E-05
421.3165,-6.171239E-05
421.4165,-6.164835E-05
421.5165,-6.160598E-05
421.6165,-6.158337E-05
421.7165,-6.153251E-05
421.8165,-6.151368E-05
421.9165,-6.147224E-05
422.0165,-6.143081E-05
422.1165,-6.141197E-05
422.2166,-6.138655E-05
422.3166,-6.131592E-05
422.4166,-6.128578E-05
422.5166,-6.126883E-05
422.6166,-6.12274E-05
422.7166,-6.118407E-05
422.8166,-6.119443E-05
422.9166,-6.113322E-05
423.0166,-6.10673E-05
423.1166,-6.108425E-05
423.2166,-6.104093E-05
423.3166,-6.097878E-05
423.4166,-6.096277E-05
423.5166,-6.095712E-05
423.6166,-6.088555E-05
423.7166,-6.083375E-05
423.8167,-6.084693E-05
423.9167,-6.080079E-05
424.0167,-6.0749E-05
424.1167,-6.073769E-05
424.2167,-6.072639E-05
424.3167,-6.0652E-05
424.4167,-6.065294E-05
424.5167,-6.061433E-05
424.6167,-6.052863E-05
424.7167,-6.05258E-05
424.8167,-6.049473E-05
424.9167,-6.04354E-05
425.0167,-6.037513E-05
425.1167,-6.033934E-05
425.2167,-6.034028E-05
425.3167,-6.027248E-05
425.4167,-6.023764E-05
425.5168,-6.021315E-05
425.6168,-6.017548E-05
425.7168,-6.013875E-05
425.8168,-6.010579E-05
425.9168,-6.00427E-05
426.0168,-6.002951E-05
426.1168,-5.998525E-05
426.2168,-5.99344E-05
426.3168,-5.99344E-05
426.4168,-5.990803E-05
426.5168,-5.983363E-05
426.6168,-5.981103E-05
426.7168,-5.97969E-05
426.8168,-5.97065E-05
426.9168,-5.969991E-05
427.0168,-5.968484E-05
427.1169,-5.963399E-05
427.2169,-5.95756E-05
427.3169,-5.960385E-05
427.4169,-5.952851E-05
427.5169,-5.947954E-05
427.6169,-5.947013E-05
427.7169,-5.943622E-05
427.8169,-5.937784E-05
427.9169,-5.934487E-05
428.0169,-5.932416E-05
428.1169,-5.92846E-05
428.2169,-5.920361E-05
428.3169,-5.921021E-05
428.4169,-5.918102E-05
428.5169,-5.910756E-05
428.6169,-5.908872E-05
428.7169,-5.907836E-05
428.817,-5.902092E-05
428.917,-5.896536E-05
429.017,-5.896348E-05
429.117,-5.891451E-05
429.217,-5.885423E-05
429.317,-5.883351E-05
429.417,-5.882504E-05
429.517,-5.875817E-05
429.617,-5.872804E-05
429.717,-5.869037E-05
429.817,-5.86866E-05
429.917,-5.863952E-05
430.017,-5.859149E-05
430.117,-5.857266E-05
430.217,-5.855759E-05
430.317,-5.850202E-05
430.4171,-5.847001E-05
430.5171,-5.84474E-05
430.6171,-5.840408E-05
430.7171,-5.835794E-05
430.8171,-5.833063E-05
430.9171,-5.831933E-05
431.0171,-5.824776E-05
431.1171,-5.821197E-05
431.2171,-5.821951E-05
431.3171,-5.817524E-05
431.4171,-5.81178E-05
431.5171,-5.810744E-05
431.6171,-5.810462E-05
431.7171,-5.803493E-05
431.8171,-5.800103E-05
431.9171,-5.798125E-05
432.0172,-5.794829E-05
432.1172,-5.788801E-05
432.2172,-5.788707E-05
432.3172,-5.783434E-05
432.4172,-5.778443E-05
432.5172,-5.776465E-05
432.6172,-5.776088E-05
432.7172,-5.768837E-05
432.8172,-5.771191E-05
432.9172,-5.764693E-05
433.0172,-5.759043E-05
433.1172,-5.75942E-05
433.2172,-5.754993E-05
433.3172,-5.748307E-05
433.4172,-5.744917E-05
433.5172,-5.742845E-05
433.6172,-5.736724E-05
433.7173,-5.731733E-05
433.8173,-5.730791E-05
433.9173,-5.726741E-05
434.0173,-5.720055E-05
434.1173,-5.720903E-05
434.2173,-5.716383E-05
434.3173,-5.71271E-05
434.4173,-5.706118E-05
434.5173,-5.704422E-05
434.6173,-5.701409E-05
434.7173,-5.696606E-05
434.8173,-5.694346E-05
434.9173,-5.691897E-05
435.0173,-5.683799E-05
435.1173,-5.683328E-05
435.2173,-5.682198E-05
435.3174,-5.677206E-05
435.4174,-5.67165E-05
435.5174,-5.671462E-05
435.6174,-5.66713E-05
435.7174,-5.66374E-05
435.8174,-5.660538E-05
435.9174,-5.655735E-05
436.0174,-5.655264E-05
436.1174,-5.653569E-05
436.2174,-5.644999E-05
436.3174,-5.646129E-05
436.4174,-5.645659E-05
436.5174,-5.638878E-05
436.6174,-5.63238E-05
436.7174,-5.637465E-05
436.8174,-5.630214E-05
436.9174,-5.62334E-05
437.0175,-5.623905E-05
437.1175,-5.619949E-05
437.2175,-5.612698E-05
437.3175,-5.612133E-05
437.4175,-5.612039E-05
437.5175,-5.605352E-05
437.6175,-5.600738E-05
437.7175,-5.600456E-05
437.8175,-5.595558E-05
437.9175,-5.591603E-05
438.0175,-5.58972E-05
438.1175,-5.587271E-05
438.2175,-5.582657E-05
438.3175,-5.580396E-05
438.4175,-5.576817E-05
438.5175,-5.573334E-05
438.6176,-5.570791E-05
438.7176,-5.566365E-05
438.8176,-5.563822E-05
438.9176,-5.560997E-05
439.0176,-5.557136E-05
439.1176,-5.554122E-05
439.2176,-5.552615E-05
439.3176,-5.550355E-05
439.4176,-5.543951E-05
439.5176,-5.543104E-05
439.6176,-5.542256E-05
439.7176,-5.534817E-05
439.8176,-5.532368E-05
439.9176,-5.529355E-05
440.0176,-5.52587E-05
440.1176,-5.522198E-05
440.2177,-5.519843E-05
440.3177,-5.518337E-05
440.4177,-5.513439E-05
440.5177,-5.50826E-05
440.6177,-5.510143E-05
440.7177,-5.502704E-05
440.8177,-5.498466E-05
440.9177,-5.497995E-05
441.0177,-5.494793E-05
441.1177,-5.489425E-05
441.2177,-5.485187E-05
441.3177,-5.483775E-05
441.4177,-5.477088E-05
441.5177,-5.474546E-05
441.6177,-5.476429E-05
441.7177,-5.472003E-05
441.8177,-5.464658E-05
441.9178,-5.468613E-05
442.0178,-5.463434E-05
442.1178,-5.4575E-05
442.2178,-5.456559E-05
442.3178,-5.452415E-05
442.4178,-5.447707E-05
442.5178,-5.443186E-05
442.6178,-5.443563E-05
442.7178,-5.439702E-05
442.8178,-5.434616E-05
442.9178,-5.43358E-05
443.0178,-5.426706E-05
443.1178,-5.42454E-05
443.2178,-5.423598E-05
443.3178,-5.4171E-05
443.4178,-5.416817E-05
443.5179,-5.415782E-05
443.6179,-5.41258E-05
443.7179,-5.407589E-05
443.8179,-5.408153E-05
443.9179,-5.402503E-05
444.0179,-5.399019E-05
444.1179,-5.398642E-05
444.2179,-5.394687E-05
444.3179,-5.390167E-05
444.4179,-5.388001E-05
444.5179,-5.386776E-05
444.6179,-5.38235E-05
444.7179,-5.378583E-05
444.8179,-5.378207E-05
444.9179,-5.372839E-05
445.0179,-5.367942E-05
445.118,-5.366906E-05
445.218,-5.361162E-05
445.318,-5.358242E-05
445.418,-5.353251E-05
445.518,-5.351085E-05
445.618,-5.34647E-05
445.718,-5.342421E-05
445.818,-5.342326E-05
445.918,-5.340538E-05
446.018,-5.335547E-05
446.118,-5.333945E-05
446.218,-5.32999E-05
446.318,-5.324622E-05
446.418,-5.324057E-05
446.518,-5.32029E-05
446.618,-5.315205E-05
446.718,-5.314358E-05
446.8181,-5.312003E-05
446.9181,-5.307859E-05
447.0181,-5.305787E-05
447.1181,-5.30494E-05
447.2181,-5.298442E-05
447.3181,-5.295523E-05
447.4181,-5.295146E-05
447.5181,-5.290438E-05
447.6181,-5.286388E-05
447.7181,-5.287047E-05
447.8181,-5.285917E-05
447.9181,-5.280266E-05
448.0181,-5.277818E-05
448.1181,-5.276688E-05
448.2181,-5.271132E-05
448.3181,-5.268307E-05
448.4182,-5.267082E-05
448.5182,-5.261903E-05
448.6182,-5.260302E-05
448.7182,-5.257477E-05
448.8182,-5.253993E-05
448.9182,-5.248907E-05
449.0182,-5.247871E-05
449.1182,-5.242597E-05
449.2182,-5.239867E-05
449.3182,-5.238642E-05
449.4182,-5.231485E-05
449.5182,-5.228754E-05
449.6182,-5.226212E-05
449.7182,-5.223292E-05
449.8182,-5.219713E-05
449.9182,-5.216888E-05
450.0182,-5.217736E-05
450.1183,-5.209637E-05
450.2183,-5.207754E-05
450.3183,-5.209731E-05
450.4183,-5.20248E-05
450.5183,-5.196453E-05
450.6183,-5.197018E-05
450.7183,-5.196264E-05
450.8183,-5.187129E-05
450.9183,-5.187506E-05
451.0183,-5.185529E-05
451.1183,-5.179501E-05
451.2183,-5.180161E-05
451.3183,-5.176394E-05
451.4183,-5.173192E-05
451.5183,-5.168483E-05
451.6183,-5.170272E-05
451.7184,-5.168578E-05
451.8184,-5.162174E-05
451.9184,-5.160667E-05
452.0184,-5.159537E-05
452.1184,-5.156052E-05
452.2184,-5.150967E-05
452.3184,-5.150213E-05
452.4184,-5.146541E-05
452.5184,-5.139195E-05
452.6184,-5.139478E-05
452.7184,-5.138724E-05
452.8184,-5.132792E-05
452.9184,-5.133357E-05
453.0184,-5.130908E-05
453.1184,-5.125258E-05
453.2184,-5.124693E-05
453.3185,-5.121491E-05
453.4185,-5.118666E-05
453.5185,-5.114522E-05
453.6185,-5.112356E-05
453.7185,-5.109248E-05
453.8185,-5.105293E-05
453.9185,-5.103221E-05
454.0185,-5.100301E-05
454.1185,-5.097665E-05
454.2185,-5.095405E-05
454.3185,-5.090978E-05
454.4185,-5.089849E-05
454.5185,-5.086646E-05
454.6185,-5.082597E-05
454.7185,-5.079019E-05
454.8185,-5.077324E-05
454.9185,-5.075251E-05
455.0186,-5.070731E-05
455.1186,-5.070166E-05
455.2186,-5.069601E-05
455.3186,-5.062539E-05
455.4186,-5.06122E-05
455.5186,-5.060467E-05
455.6186,-5.054817E-05
455.7186,-5.052556E-05
455.8186,-5.053216E-05
455.9186,-5.046717E-05
456.0186,-5.045493E-05
456.1186,-5.042103E-05
456.2186,-5.040785E-05
456.3186,-5.037489E-05
456.4186,-5.034757E-05
456.5186,-5.032686E-05
456.6187,-5.031461E-05
456.7187,-5.02534E-05
456.8187,-5.025529E-05
456.9187,-5.022421E-05
457.0187,-5.015828E-05
457.1187,-5.020349E-05
457.2187,-5.013945E-05
457.3187,-5.008106E-05
457.4187,-5.009236E-05
457.5187,-5.007729E-05
457.6187,-5.00142E-05
457.7187,-4.996335E-05
457.8187,-4.997465E-05
457.9187,-4.99464E-05
458.0187,-4.989366E-05
458.1187,-4.989648E-05
458.2188,-4.98899E-05
458.3188,-4.981926E-05
458.4188,-4.981173E-05
458.5188,-4.979101E-05
458.6188,-4.975052E-05
458.7188,-4.97119E-05
458.8188,-4.968742E-05
458.9188,-4.965446E-05
459.0188,-4.962338E-05
459.1188,-4.958665E-05
459.2188,-4.956876E-05
459.3188,-4.954522E-05
459.4188,-4.95019E-05
459.5188,-4.945575E-05
459.6188,-4.946705E-05
459.7188,-4.945575E-05
459.8188,-4.938795E-05
459.9189,-4.933709E-05
460.0189,-4.93823E-05
460.1189,-4.932014E-05
460.2189,-4.926176E-05
460.3189,-4.928342E-05
460.4189,-4.92401E-05
460.5189,-4.92062E-05
460.6189,-4.919019E-05
460.7189,-4.916476E-05
460.8189,-4.912521E-05
460.9189,-4.909319E-05
461.0189,-4.908377E-05
461.1189,-4.906211E-05
461.2189,-4.903386E-05
461.3189,-4.901502E-05
461.4189,-4.898866E-05
461.519,-4.89783E-05
461.619,-4.893875E-05
461.719,-4.890296E-05
461.819,-4.888789E-05
461.919,-4.881537E-05
462.019,-4.876829E-05
462.119,-4.875699E-05
462.219,-4.87391E-05
462.319,-4.86939E-05
462.419,-4.866753E-05
462.519,-4.861667E-05
462.619,-4.861008E-05
462.719,-4.857806E-05
462.819,-4.854039E-05
462.919,-4.852344E-05
463.019,-4.850837E-05
463.119,-4.846223E-05
463.2191,-4.844528E-05
463.3191,-4.841326E-05
463.4191,-4.837747E-05
463.5191,-4.836617E-05
463.6191,-4.833509E-05
463.7191,-4.831814E-05
463.8191,-4.828424E-05
463.9191,-4.825128E-05
464.0191,-4.823904E-05
464.1191,-4.81976E-05
464.2191,-4.818913E-05
464.3191,-4.816464E-05
464.4191,-4.814769E-05
464.5191,-4.815145E-05
464.6191,-4.808553E-05
464.7191,-4.806387E-05
464.8192,-4.806858E-05
464.9192,-4.79989E-05
465.0192,-4.794427E-05
465.1192,-4.792073E-05
465.2192,-4.791132E-05
465.3192,-4.783692E-05
465.4192,-4.781432E-05
465.5192,-4.783315E-05
465.6192,-4.776064E-05
465.7192,-4.772485E-05
465.8192,-4.777099E-05
465.9192,-4.768718E-05
466.0192,-4.763068E-05
466.1192,-4.766835E-05
466.2192,-4.762314E-05
466.3192,-4.755722E-05
466.4193,-4.753556E-05
466.5193,-4.75431E-05
466.6193,-4.750261E-05
466.7193,-4.744704E-05
466.8193,-4.743197E-05
466.9193,-4.740561E-05
467.0193,-4.738018E-05
467.1193,-4.736417E-05
467.2193,-4.731143E-05
467.3193,-4.727847E-05
467.4193,-4.730202E-05
467.5193,-4.72521E-05
467.6193,-4.721161E-05
467.7193,-4.722479E-05
467.8193,-4.718901E-05
467.9193,-4.714004E-05
468.0193,-4.713533E-05
468.1194,-4.710896E-05
468.2194,-4.706093E-05
468.3194,-4.702515E-05
468.4194,-4.702515E-05
468.5194,-4.698936E-05
468.6194,-4.694321E-05
468.7194,-4.6979E-05
468.8194,-4.692815E-05
468.9194,-4.686317E-05
469.0194,-4.690178E-05
469.1194,-4.683869E-05
469.2194,-4.681326E-05
469.3194,-4.678877E-05
469.4194,-4.6769E-05
469.5194,-4.674734E-05
469.6194,-4.669837E-05
469.7195,-4.668047E-05
469.8195,-4.666823E-05
469.9195,-4.659477E-05
470.0195,-4.660325E-05
470.1195,-4.659383E-05
470.2195,-4.652697E-05
470.3195,-4.65232E-05
470.4195,-4.652415E-05
470.5195,-4.649024E-05
470.6195,-4.644221E-05
470.7195,-4.642809E-05
470.8195,-4.641584E-05
470.9195,-4.638759E-05
471.0195,-4.634992E-05
471.1195,-4.633297E-05
471.2195,-4.630849E-05
471.3195,-4.6284E-05
471.4196,-4.624351E-05
471.5196,-4.622373E-05
471.6196,-4.62209E-05
471.7196,-4.617288E-05
471.8196,-4.612768E-05
471.9196,-4.615404E-05
472.0196,-4.612768E-05
472.1196,-4.605704E-05
472.2196,-4.606081E-05
472.3196,-4.605893E-05
472.4196,-4.601938E-05
472.5196,-4.599583E-05
472.6196,-4.597888E-05
472.7196,-4.595157E-05
472.8196,-4.590354E-05
472.9196,-4.588471E-05
473.0197,-4.58913E-05
473.1197,-4.582632E-05
473.2197,-4.583103E-05
473.3197,-4.583857E-05
473.4197,-4.575098E-05
473.5197,-4.575758E-05
473.6197,-4.575098E-05
473.7197,-4.569919E-05
473.8197,-4.568224E-05
473.9197,-4.567282E-05
474.0197,-4.563892E-05
474.1197,-4.558053E-05
474.2197,-4.557394E-05
474.3197,-4.554851E-05
474.4197,-4.549201E-05
474.5197,-4.546846E-05
474.6198,-4.545622E-05
474.7198,-4.544021E-05
474.8198,-4.539784E-05
474.9198,-4.537617E-05
475.0198,-4.53564E-05
475.1198,-4.534698E-05
475.2198,-4.532438E-05
475.3198,-4.529236E-05
475.4198,-4.527258E-05
475.5198,-4.523397E-05
475.6198,-4.523491E-05
475.7198,-4.519725E-05
475.8198,-4.518123E-05
475.9198,-4.515393E-05
476.0198,-4.515958E-05
476.1198,-4.512096E-05
476.2198,-4.507858E-05
476.3199,-4.506446E-05
476.4199,-4.505127E-05
476.5199,-4.500795E-05
476.6199,-4.496464E-05
476.7199,-4.498253E-05
476.8199,-4.493262E-05
476.9199,-4.4894E-05
477.0199,-4.488459E-05
477.1199,-4.487706E-05
477.2199,-4.485163E-05
477.3199,-4.479701E-05
477.4199,-4.482526E-05
477.5199,-4.480266E-05
477.6199,-4.473392E-05
477.7199,-4.474615E-05
477.8199,-4.473485E-05
477.92,-4.467458E-05
478.02,-4.464821E-05
478.12,-4.46322E-05
478.22,-4.462844E-05
478.32,-4.455687E-05
478.42,-4.457947E-05
478.52,-4.456346E-05
478.62,-4.449188E-05
478.72,-4.450319E-05
478.82,-4.44966E-05
478.92,-4.443726E-05
479.02,-4.443821E-05
479.12,-4.44335E-05
479.22,-4.439112E-05
479.32,-4.437794E-05
479.42,-4.436193E-05
479.5201,-4.432615E-05
479.6201,-4.43026E-05
479.7201,-4.428471E-05
479.8201,-4.425928E-05
479.9201,-4.424704E-05
480.0201,-4.421031E-05
480.1201,-4.417453E-05
480.2201,-4.416322E-05
480.3201,-4.416134E-05
480.4201,-4.411143E-05
480.5201,-4.407658E-05
480.6201,-4.408223E-05
480.7201,-4.406246E-05
480.8201,-4.402761E-05
480.9201,-4.401537E-05
481.0201,-4.401161E-05
481.1201,-4.395981E-05
481.2202,-4.393532E-05
481.3202,-4.392685E-05
481.4202,-4.390613E-05
481.5202,-4.384397E-05
481.6202,-4.385245E-05
481.7202,-4.385528E-05
481.8202,-4.378088E-05
481.9202,-4.379689E-05
482.0202,-4.379312E-05
482.1202,-4.371496E-05
482.2202,-4.370554E-05
482.3202,-4.368765E-05
482.4202,-4.36594E-05
482.5202,-4.364998E-05
482.6202,-4.359724E-05
482.7202,-4.358877E-05
482.8203,-4.358312E-05
482.9203,-4.352284E-05
483.0203,-4.35285E-05
483.1203,-4.348518E-05
483.2203,-4.350024E-05
483.3203,-4.345693E-05
483.4203,-4.341455E-05
483.5203,-4.340607E-05
483.6203,-4.339477E-05
483.7203,-4.336181E-05
483.8203,-4.330813E-05
483.9203,-4.331661E-05
484.0203,-4.331661E-05
484.1203,-4.326199E-05
484.2203,-4.323374E-05
484.3203,-4.322808E-05
484.4203,-4.320548E-05
484.5204,-4.318382E-05
484.6204,-4.313956E-05
484.7204,-4.314144E-05
484.8204,-4.311602E-05
484.9204,-4.307364E-05
485.0204,-4.306611E-05
485.1204,-4.306611E-05
485.2204,-4.306234E-05
485.3204,-4.301525E-05
485.4204,-4.300584E-05
485.5204,-4.297476E-05
485.6204,-4.295121E-05
485.7204,-4.29079E-05
485.8204,-4.291637E-05
485.9204,-4.286928E-05
486.0204,-4.285422E-05
486.1205,-4.283538E-05
486.2205,-4.279771E-05
486.3205,-4.275816E-05
486.4205,-4.275816E-05
486.5205,-4.271296E-05
486.6205,-4.268565E-05
486.7205,-4.268188E-05
486.8205,-4.262632E-05
486.9205,-4.261313E-05
487.0205,-4.258394E-05
487.1205,-4.255852E-05
487.2205,-4.253026E-05
487.3205,-4.250483E-05
487.4205,-4.249165E-05
487.5205,-4.248412E-05
487.6205,-4.244551E-05
487.7206,-4.244645E-05
487.8206,-4.242949E-05
487.9206,-4.238335E-05
488.0206,-4.239465E-05
488.1206,-4.234192E-05
488.2206,-4.232779E-05
488.3206,-4.227694E-05
488.4206,-4.227788E-05
488.5206,-4.224868E-05
488.6206,-4.223079E-05
488.7206,-4.219783E-05
488.8206,-4.219124E-05
488.9206,-4.214792E-05
489.0206,-4.214132E-05
489.1206,-4.214604E-05
489.2206,-4.209613E-05
489.3206,-4.206222E-05
489.4207,-4.205469E-05
489.5207,-4.204244E-05
489.6207,-4.199442E-05
489.7207,-4.200195E-05
489.8207,-4.200289E-05
489.9207,-4.194262E-05
490.0207,-4.195486E-05
490.1207,-4.195298E-05
490.2207,-4.189082E-05
490.3207,-4.187105E-05
490.4207,-4.186163E-05
490.5207,-4.182773E-05
490.6207,-4.178818E-05
490.7207,-4.176934E-05
490.8207,-4.178535E-05
490.9207,-4.173544E-05
491.0208,-4.170154E-05
491.1208,-4.170436E-05
491.2208,-4.167517E-05
491.3208,-4.16422E-05
491.4208,-4.16375E-05
491.5208,-4.161113E-05
491.6208,-4.158006E-05
491.7208,-4.159041E-05
491.8208,-4.156498E-05
491.9208,-4.152073E-05
492.0208,-4.151507E-05
492.1208,-4.150472E-05
492.2208,-4.145951E-05
492.3208,-4.143786E-05
492.4208,-4.143314E-05
492.5208,-4.139453E-05
492.6208,-4.140113E-05
492.7209,-4.13644E-05
492.8209,-4.132108E-05
492.9209,-4.133614E-05
493.0209,-4.130601E-05
493.1209,-4.125704E-05
493.2209,-4.125233E-05
493.3209,-4.123538E-05
493.4209,-4.120054E-05
493.5209,-4.118547E-05
493.6209,-4.117323E-05
493.7209,-4.115156E-05
493.8209,-4.112991E-05
493.9209,-4.11186E-05
494.0209,-4.110071E-05
494.1209,-4.104986E-05
494.2209,-4.104044E-05
494.321,-4.102537E-05
494.421,-4.099712E-05
494.521,-4.096416E-05
494.621,-4.095474E-05
494.721,-4.092555E-05
494.821,-4.093497E-05
494.921,-4.087752E-05
495.021,-4.088411E-05
495.121,-4.084551E-05
495.221,-4.085021E-05
495.321,-4.079747E-05
495.421,-4.077488E-05
495.521,-4.077205E-05
495.621,-4.073721E-05
495.721,-4.069765E-05
495.821,-4.070425E-05
495.9211,-4.070142E-05
496.0211,-4.062985E-05
496.1211,-4.063361E-05
496.2211,-4.065621E-05
496.3211,-4.055075E-05
496.4211,-4.056958E-05
496.5211,-4.058747E-05
496.6211,-4.054697E-05
496.7211,-4.050083E-05
496.8211,-4.051213E-05
496.9211,-4.050366E-05
497.0211,-4.044244E-05
497.1211,-4.045657E-05
497.2211,-4.044809E-05
497.3211,-4.037464E-05
497.4211,-4.040289E-05
497.5211,-4.034733E-05
497.6212,-4.03332E-05
497.7212,-4.033697E-05
497.8212,-4.030401E-05
497.9212,-4.025787E-05
498.0212,-4.025881E-05
498.1212,-4.02249E-05
498.2212,-4.019194E-05
498.3212,-4.017405E-05
498.4212,-4.017499E-05
498.5212,-4.012885E-05
498.6212,-4.011189E-05
498.7212,-4.011001E-05
498.8212,-4.007705E-05
498.9212,-4.004974E-05
499.0212,-4.004126E-05
499.1212,-4.002902E-05
499.2213,-3.997252E-05
499.3213,-3.997158E-05
499.4213,-3.994991E-05
499.5213,-3.991131E-05
499.6213,-3.987175E-05
499.7213,-3.989153E-05
499.8213,-3.984821E-05
499.9213,-3.980113E-05
500.0213,-3.981054E-05
500.1213,-3.981431E-05
500.2213,-3.975122E-05
500.3213,-3.976817E-05
500.4213,-3.976534E-05
500.5213,-3.971448E-05
500.6213,-3.968058E-05
500.7213,-3.966363E-05
500.8214,-3.964668E-05
500.9214,-3.964103E-05
501.0214,-3.96156E-05
501.1214,-3.962314E-05
501.2214,-3.957417E-05
501.3214,-3.959017E-05
501.4214,-3.954968E-05
501.5214,-3.950448E-05
501.6214,-3.95139E-05
501.7214,-3.948188E-05
501.8214,-3.94216E-05
501.9214,-3.939995E-05
502.0214,-3.94169E-05
502.1214,-3.939053E-05
502.2214,-3.932367E-05
502.3214,-3.934721E-05
502.4214,-3.935663E-05
502.5215,-3.928317E-05
502.6215,-3.927188E-05
502.7215,-3.928035E-05
502.8215,-3.923891E-05
502.9215,-3.920407E-05
503.0215,-3.920972E-05
503.1215,-3.918429E-05
503.2215,-3.912402E-05
503.3215,-3.915039E-05
503.4215,-3.914474E-05
503.5215,-3.907034E-05
503.6215,-3.906187E-05
503.7215,-3.906375E-05
503.8215,-3.904021E-05
503.9215,-3.902137E-05
504.0215,-3.8995E-05
504.1216,-3.899594E-05
504.2216,-3.897428E-05
504.3216,-3.896204E-05
504.4216,-3.894792E-05
504.5216,-3.889612E-05
504.6216,-3.889047E-05
504.7216,-3.884809E-05
504.8216,-3.885563E-05
504.9216,-3.884998E-05
505.0216,-3.88123E-05
505.1216,-3.876804E-05
505.2216,-3.879818E-05
505.3216,-3.873979E-05
505.4216,-3.870683E-05
505.5216,-3.871436E-05
505.6216,-3.867387E-05
505.7216,-3.867952E-05
505.8217,-3.861549E-05
505.9217,-3.862773E-05
506.0217,-3.859759E-05
506.1217,-3.857687E-05
506.2217,-3.857875E-05
506.3217,-3.857028E-05
506.4217,-3.850248E-05
506.5217,-3.851378E-05
506.6217,-3.847893E-05
506.7217,-3.845162E-05
506.8217,-3.841207E-05
506.9217,-3.843373E-05
507.0217,-3.840454E-05
507.1217,-3.835274E-05
507.2217,-3.836875E-05
507.3217,-3.834898E-05
507.4218,-3.830377E-05
507.5218,-3.831413E-05
507.6218,-3.82953E-05
507.7218,-3.824915E-05
507.8218,-3.8203E-05
507.9218,-3.82322E-05
508.0218,-3.821525E-05
508.1218,-3.817381E-05
508.2218,-3.817381E-05
508.3218,-3.817004E-05
508.4218,-3.809847E-05
508.5218,-3.809471E-05
508.6218,-3.810506E-05
508.7218,-3.80495E-05
508.8218,-3.803443E-05
508.9218,-3.804103E-05
509.0219,-3.80043E-05
509.1219,-3.797605E-05
509.2219,-3.798264E-05
509.3219,-3.796757E-05
509.4219,-3.794968E-05
509.5219,-3.793179E-05
509.6219,-3.792048E-05
509.7219,-3.787152E-05
509.8219,-3.787622E-05
509.9219,-3.786115E-05
510.0219,-3.783008E-05
510.1219,-3.783291E-05
510.2219,-3.780936E-05
510.3219,-3.776792E-05
510.4219,-3.775474E-05
510.5219,-3.775568E-05
510.6219,-3.772837E-05
510.722,-3.768129E-05
510.822,-3.767376E-05
510.922,-3.769541E-05
511.022,-3.762007E-05
511.122,-3.764079E-05
511.222,-3.761819E-05
511.322,-3.756734E-05
511.422,-3.758429E-05
511.522,-3.755415E-05
511.622,-3.751554E-05
511.722,-3.750142E-05
511.822,-3.750989E-05
511.922,-3.749012E-05
512.022,-3.744303E-05
512.122,-3.744114E-05
512.222,-3.742514E-05
512.322,-3.738653E-05
512.4219,-3.737805E-05
512.5219,-3.737993E-05
512.6219,-3.734415E-05
512.7219,-3.734792E-05
512.8218,-3.733756E-05
512.9218,-3.732343E-05
513.0218,-3.731213E-05
513.1218,-3.728293E-05
513.2217,-3.727163E-05
513.3217,-3.723679E-05
513.4217,-3.720383E-05
513.5217,-3.721795E-05
513.6216,-3.718594E-05
513.7216,-3.715486E-05
513.8216,-3.71445E-05
513.9216,-3.714167E-05
514.0215,-3.711342E-05
514.1215,-3.70927E-05
514.2215,-3.707293E-05
514.3215,-3.706257E-05
514.4214,-3.702396E-05
514.5214,-3.698629E-05
514.6214,-3.700512E-05
514.7214,-3.698346E-05
514.8214,-3.69392E-05
514.9213,-3.692885E-05
515.0213,-3.693732E-05
515.1213,-3.689777E-05
515.2213,-3.687234E-05
515.3212,-3.688835E-05
515.4212,-3.687328E-05
515.5212,-3.68149E-05
515.6212,-3.68309E-05
515.7211,-3.680265E-05
515.8211,-3.677346E-05
515.9211,-3.676875E-05
516.0211,-3.676498E-05
516.121,-3.671601E-05
516.221,-3.668493E-05
516.321,-3.671601E-05
516.421,-3.669435E-05
516.5209,-3.66548E-05
516.6209,-3.664067E-05
516.7209,-3.665574E-05
516.8209,-3.661431E-05
516.9208,-3.660866E-05
517.0208,-3.657098E-05
517.1208,-3.654085E-05
517.2208,-3.656816E-05
517.3207,-3.655027E-05
517.4207,-3.649659E-05
517.5207,-3.651637E-05
517.6207,-3.650318E-05
517.7206,-3.646174E-05
517.8206,-3.647493E-05
517.9206,-3.644668E-05
518.0206,-3.640618E-05
518.1205,-3.639959E-05
518.2205,-3.639865E-05
518.3205,-3.637793E-05
518.4205,-3.632802E-05
518.5204,-3.636286E-05
518.6204,-3.637134E-05
518.7204,-3.629318E-05
518.8204,-3.630165E-05
518.9203,-3.628753E-05
519.0203,-3.625645E-05
519.1203,-3.62395E-05
519.2203,-3.622819E-05
519.3203,-3.620653E-05
519.4202,-3.617734E-05
519.5202,-3.616604E-05
519.6202,-3.614532E-05
519.7202,-3.614062E-05
519.8201,-3.611895E-05
519.9201,-3.607469E-05
520.0201,-3.607281E-05
520.1201,-3.606528E-05
520.22,-3.604079E-05
520.32,-3.599653E-05
520.42,-3.600689E-05
520.52,-3.59937E-05
520.6199,-3.59711E-05
520.7199,-3.596074E-05
520.8199,-3.591083E-05
520.9199,-3.590801E-05
521.0198,-3.592873E-05
521.1198,-3.588446E-05
521.2198,-3.585339E-05
521.3198,-3.585904E-05
521.4197,-3.585056E-05
521.5197,-3.580065E-05
521.6197,-3.577805E-05
521.7197,-3.579782E-05
521.8196,-3.578276E-05
521.9196,-3.57498E-05
522.0196,-3.572719E-05
522.1196,-3.574226E-05
522.2195,-3.571401E-05
522.3195,-3.569989E-05
522.4195,-3.566316E-05
522.5195,-3.565939E-05
522.6194,-3.564338E-05
522.7194,-3.561513E-05
522.8194,-3.559912E-05
522.9194,-3.5601E-05
523.0193,-3.559158E-05
523.1193,-3.555768E-05
523.2193,-3.555392E-05
523.3193,-3.551436E-05
523.4193,-3.549741E-05
523.5192,-3.547763E-05
523.6192,-3.546728E-05
523.7192,-3.545597E-05
523.8192,-3.542301E-05
523.9191,-3.542678E-05
524.0191,-3.541171E-05
524.1191,-3.539476E-05
524.2191,-3.537499E-05
524.319,-3.534673E-05
524.419,-3.533826E-05
524.519,-3.532036E-05
524.619,-3.527611E-05
524.7189,-3.526669E-05
524.8189,-3.524974E-05
524.9189,-3.524785E-05
525.0189,-3.521489E-05
525.1188,-3.522148E-05
525.2188,-3.518475E-05
525.3188,-3.515839E-05
525.4188,-3.514332E-05
525.5187,-3.515462E-05
525.6187,-3.51113E-05
525.7187,-3.506892E-05
525.8187,-3.509341E-05
525.9186,-3.506986E-05
526.0186,-3.501995E-05
526.1186,-3.502937E-05
526.2186,-3.50209E-05
526.3185,-3.496157E-05
526.4185,-3.497381E-05
526.5185,-3.498794E-05
526.6185,-3.495686E-05
526.7184,-3.491542E-05
526.8184,-3.495121E-05
526.9184,-3.49013E-05
527.0184,-3.48787E-05
527.1183,-3.48608E-05
527.2183,-3.485704E-05
527.3183,-3.484102E-05
527.4183,-3.480713E-05
527.5182,-3.482784E-05
527.6182,-3.480053E-05
527.7182,-3.473744E-05
527.8182,-3.477134E-05
527.9182,-3.472519E-05
528.0181,-3.466775E-05
528.1181,-3.468376E-05
528.2181,-3.466209E-05
528.3181,-3.463855E-05
528.418,-3.459617E-05
528.518,-3.460842E-05
528.618,-3.461124E-05
528.718,-3.45538E-05
528.8179,-3.457169E-05
528.9179,-3.458487E-05
529.0179,-3.451801E-05
529.1179,-3.451236E-05
529.2178,-3.45133E-05
529.3178,-3.448411E-05
529.4178,-3.447281E-05
529.5178,-3.444738E-05
529.6177,-3.442101E-05
529.7177,-3.441725E-05
529.8177,-3.437958E-05
529.9177,-3.436357E-05
530.0176,-3.436827E-05
530.1176,-3.436451E-05
530.2176,-3.432307E-05
530.3176,-3.432307E-05
530.4175,-3.432024E-05
530.5175,-3.427693E-05
530.6175,-3.425998E-05
530.7175,-3.427598E-05
530.8174,-3.425621E-05
530.9174,-3.421854E-05
531.0174,-3.422701E-05
531.1174,-3.417522E-05
531.2173,-3.419312E-05
531.3173,-3.417522E-05
531.4173,-3.414508E-05
531.5173,-3.413849E-05
531.6172,-3.412343E-05
531.7172,-3.411024E-05
531.8172,-3.407728E-05
531.9172,-3.405844E-05
532.0172,-3.408199E-05
532.1171,-3.404997E-05
532.2171,-3.402172E-05
532.3171,-3.403113E-05
532.4171,-3.402454E-05
532.517,-3.397746E-05
532.617,-3.399535E-05
532.717,-3.398217E-05
532.817,-3.394826E-05
532.9169,-3.392096E-05
533.0169,-3.392096E-05
533.1169,-3.388799E-05
533.2169,-3.386162E-05
533.3168,-3.385692E-05
533.4168,-3.386916E-05
533.5168,-3.385597E-05
533.6168,-3.383525E-05
533.7167,-3.383808E-05
533.8167,-3.379005E-05
533.9167,-3.379476E-05
534.0167,-3.377216E-05
534.1166,-3.373637E-05
534.2166,-3.373731E-05
534.3166,-3.370624E-05
534.4166,-3.370906E-05
534.5165,-3.368647E-05
534.6165,-3.366669E-05
534.7165,-3.367234E-05
534.8165,-3.366386E-05
534.9164,-3.363843E-05
535.0164,-3.363373E-05
535.1164,-3.362054E-05
535.2164,-3.358946E-05
535.3163,-3.356121E-05
535.4163,-3.355085E-05
535.5163,-3.35292E-05
535.6163,-3.351036E-05
535.7162,-3.350565E-05
535.8162,-3.348493E-05
535.9162,-3.349247E-05
536.0162,-3.345103E-05
536.1161,-3.342937E-05
536.2161,-3.346233E-05
536.3161,-3.339452E-05
536.4161,-3.338887E-05
536.5161,-3.338134E-05
536.616,-3.337286E-05
536.716,-3.333331E-05
536.816,-3.330977E-05
536.916,-3.33286E-05
537.0159,-3.330789E-05
537.1159,-3.325515E-05
537.2159,-3.330695E-05
537.3159,-3.326363E-05
537.4158,-3.324197E-05
537.5158,-3.324667E-05
537.6158,-3.321371E-05
537.7158,-3.31864E-05
537.8157,-3.316663E-05
537.9157,-3.317416E-05
538.0157,-3.314026E-05
538.1157,-3.310918E-05
538.2156,-3.312519E-05
538.3156,-3.311201E-05
538.4156,-3.305362E-05
538.5156,-3.309317E-05
538.6155,-3.306398E-05
538.7155,-3.300936E-05
538.8155,-3.30329E-05
538.9155,-3.304326E-05
539.0154,-3.298958E-05
539.1154,-3.297639E-05
539.2154,-3.296981E-05
539.3154,-3.294909E-05
539.4153,-3.292083E-05
539.5153,-3.292837E-05
539.6153,-3.291236E-05
539.7153,-3.289635E-05
539.8152,-3.288222E-05
539.9152,-3.28954E-05
540.0152,-3.284832E-05
540.1152,-3.283514E-05
540.2151,-3.283985E-05
540.3151,-3.281913E-05
540.4151,-3.279276E-05
540.5151,-3.276451E-05
540.6151,-3.277581E-05
540.715,-3.273343E-05
540.815,-3.273908E-05
540.915,-3.274755E-05
541.015,-3.269576E-05
541.1149,-3.269858E-05
541.2149,-3.26628E-05
541.3149,-3.26515E-05
541.4149,-3.266845E-05
541.5148,-3.261948E-05
541.6148,-3.260347E-05
541.7148,-3.258275E-05
541.8148,-3.256768E-05
541.9147,-3.254697E-05
542.0147,-3.254131E-05
542.1147,-3.253755E-05
542.2147,-3.250741E-05
542.3146,-3.24754E-05
542.4146,-3.248387E-05
542.5146,-3.245562E-05
542.6146,-3.243302E-05
542.7145,-3.241983E-05
542.8145,-3.241889E-05
542.9145,-3.240948E-05
543.0145,-3.240571E-05
543.1144,-3.235862E-05
543.2144,-3.233131E-05
543.3144,-3.235297E-05
543.4144,-3.231624E-05
543.5143,-3.230212E-05
543.6143,-3.230024E-05
543.7143,-3.229081E-05
543.8143,-3.227292E-05
543.9142,-3.226539E-05
544.0142,-3.227104E-05
544.1142,-3.226445E-05
544.2142,-3.224561E-05
544.3141,-3.225221E-05
544.4141,-3.221171E-05
544.5141,-3.220041E-05
544.6141,-3.217028E-05
544.7141,-3.214673E-05
544.814,-3.212507E-05
544.914,-3.211001E-05
545.014,-3.208928E-05
545.114,-3.207987E-05
545.2139,-3.206197E-05
545.3139,-3.204879E-05
545.4139,-3.203184E-05
545.5139,-3.200736E-05
545.6138,-3.200265E-05
545.7138,-3.196874E-05
545.8138,-3.19631E-05
545.9138,-3.194991E-05
546.0137,-3.195085E-05
546.1137,-3.19339E-05
546.2137,-3.191789E-05
546.3137,-3.191977E-05
546.4136,-3.189623E-05
546.5136,-3.186986E-05
546.6136,-3.185573E-05
546.7136,-3.182466E-05
546.8135,-3.180017E-05
546.9135,-3.182466E-05
547.0135,-3.17917E-05
547.1135,-3.175686E-05
547.2134,-3.177475E-05
547.3134,-3.175121E-05
547.4134,-3.169941E-05
547.5134,-3.170412E-05
547.6133,-3.172954E-05
547.7133,-3.168528E-05
547.8133,-3.164667E-05
547.9133,-3.167304E-05
548.0132,-3.164291E-05
548.1132,-3.162313E-05
548.2132,-3.163255E-05
548.3132,-3.160241E-05
548.4131,-3.156851E-05
548.5131,-3.158075E-05
548.6131,-3.157793E-05
548.7131,-3.154402E-05
548.813,-3.155438E-05
548.913,-3.152519E-05
549.013,-3.15073E-05
549.113,-3.148846E-05
549.213,-3.147999E-05
549.3129,-3.147151E-05
549.4129,-3.145833E-05
549.5129,-3.148846E-05
549.6129,-3.147433E-05
549.7128,-3.140653E-05
549.8128,-3.142442E-05
549.9128,-3.141501E-05
550.0128,-3.136698E-05
550.1127,-3.134626E-05
550.2127,-3.133967E-05
550.3127,-3.133873E-05
550.4127,-3.129352E-05
550.5126,-3.129729E-05
550.6126,-3.131895E-05
550.7126,-3.126527E-05
550.8126,-3.127845E-05
550.9125,-3.1302E-05
551.0125,-3.124361E-05
551.1125,-3.120971E-05
551.2125,-3.121253E-05
551.3124,-3.119652E-05
551.4124,-3.118428E-05
551.5124,-3.115697E-05
551.6124,-3.114284E-05
551.7123,-3.116168E-05
551.8123,-3.11419E-05
551.9123,-3.111836E-05
552.0123,-3.109576E-05
552.1122,-3.111648E-05
552.2122,-3.106939E-05
552.3122,-3.10402E-05
552.4122,-3.108446E-05
552.5121,-3.103549E-05
552.6121,-3.098275E-05
552.7121,-3.101854E-05
552.8121,-3.099688E-05
552.912,-3.096015E-05
553.012,-3.093566E-05
553.112,-3.096391E-05
553.212,-3.093284E-05
553.312,-3.089988E-05
553.4119,-3.090364E-05
553.5119,-3.088858E-05
553.6119,-3.087634E-05
553.7119,-3.086221E-05
553.8118,-3.084055E-05
553.9118,-3.083867E-05
554.0118,-3.08349E-05
554.1118,-3.08123E-05
554.2117,-3.078122E-05
554.3117,-3.082548E-05
554.4117,-3.076992E-05
554.5117,-3.074732E-05
554.6116,-3.075674E-05
554.7116,-3.074261E-05
554.8116,-3.071624E-05
554.9116,-3.071153E-05
555.0115,-3.068705E-05
555.1115,-3.066256E-05
555.2115,-3.067198E-05
555.3115,-3.066539E-05
555.4114,-3.063431E-05
555.5114,-3.06409E-05
555.6114,-3.064656E-05
555.7114,-3.060041E-05
555.8113,-3.060512E-05
555.9113,-3.060418E-05
556.0113,-3.056933E-05
556.1113,-3.056651E-05
556.2112,-3.056086E-05
556.3112,-3.055991E-05
556.4112,-3.049776E-05
556.5112,-3.048552E-05
556.6111,-3.050153E-05
556.7111,-3.04761E-05
556.8111,-3.045067E-05
556.9111,-3.045915E-05
557.011,-3.043561E-05
557.111,-3.04309E-05
557.211,-3.041489E-05
557.311,-3.040547E-05
557.4109,-3.036968E-05
557.5109,-3.036874E-05
557.6109,-3.036498E-05
557.7109,-3.035556E-05
557.8109,-3.030941E-05
557.9108,-3.032071E-05
558.0108,-3.032731E-05
558.1108,-3.027928E-05
558.2108,-3.028493E-05
558.3107,-3.02708E-05
558.4107,-3.025479E-05
558.5107,-3.026704E-05
558.6107,-3.022371E-05
558.7106,-3.021618E-05
558.8106,-3.023784E-05
558.9106,-3.022654E-05
559.0106,-3.018699E-05
559.1105,-3.019358E-05
559.2105,-3.018416E-05
559.3105,-3.016815E-05
559.4105,-3.015968E-05
559.5104,-3.014932E-05
559.6104,-3.012766E-05
559.7104,-3.010788E-05
559.8104,-3.010317E-05
559.9103,-3.008057E-05
560.0103,-3.006833E-05
560.1103,-3.005891E-05
560.2103,-3.002595E-05
560.3102,-3.002313E-05
560.4102,-3.001842E-05
560.5102,-2.999864E-05
560.6102,-2.998452E-05
560.7101,-2.998169E-05
560.8101,-2.998734E-05
560.9101,-2.994214E-05
561.0101,-2.991671E-05
561.11,-2.997039E-05
561.21,-2.991012E-05
561.31,-2.990635E-05
561.41,-2.991012E-05
561.5099,-2.988187E-05
561.6099,-2.98668E-05
561.7099,-2.985644E-05
561.8099,-2.986115E-05
561.9099,-2.983384E-05
562.0098,-2.979994E-05
562.1098,-2.982913E-05
562.2098,-2.983007E-05
562.3098,-2.975285E-05
562.4097,-2.979805E-05
562.5097,-2.977828E-05
562.6097,-2.975097E-05
562.7097,-2.975944E-05
562.8096,-2.972931E-05
562.9096,-2.971424E-05
563.0096,-2.969164E-05
563.1096,-2.970576E-05
563.2095,-2.96794E-05
563.3095,-2.965962E-05
563.4095,-2.966809E-05
563.5095,-2.963984E-05
563.6094,-2.960971E-05
563.7094,-2.964267E-05
563.8094,-2.958711E-05
563.9094,-2.957957E-05
564.0093,-2.958805E-05
564.1093,-2.957392E-05
564.2093,-2.951271E-05
564.3093,-2.954473E-05
564.4092,-2.953814E-05
564.5092,-2.948728E-05
564.6092,-2.948257E-05
564.7092,-2.950141E-05
564.8091,-2.944679E-05
564.9091,-2.944114E-05
565.0091,-2.945244E-05
565.1091,-2.944302E-05
565.209,-2.938934E-05
565.309,-2.942701E-05
565.409,-2.940629E-05
565.509,-2.935544E-05
565.6089,-2.938463E-05
565.7089,-2.937616E-05
565.8089,-2.934037E-05
565.9089,-2.930741E-05
566.0089,-2.935732E-05
566.1088,-2.93253E-05
566.2088,-2.927916E-05
566.3088,-2.930741E-05
566.4088,-2.931965E-05
566.5087,-2.925091E-05
566.6087,-2.924997E-05
566.7087,-2.925656E-05
566.8087,-2.923113E-05
566.9086,-2.920476E-05
567.0086,-2.919158E-05
567.1086,-2.918122E-05
567.2086,-2.916144E-05
567.3085,-2.915768E-05
567.4085,-2.913037E-05
567.5085,-2.911718E-05
567.6085,-2.91153E-05
567.7084,-2.911906E-05
567.8084,-2.907857E-05
567.9084,-2.908328E-05
568.0084,-2.906633E-05
568.1083,-2.905314E-05
568.2083,-2.904749E-05
568.3083,-2.902866E-05
568.4083,-2.903713E-05
568.5082,-2.901547E-05
568.6082,-2.900888E-05
568.7082,-2.897969E-05
568.8082,-2.898722E-05
568.9081,-2.899946E-05
569.0081,-2.896556E-05
569.1081,-2.89326E-05
569.2081,-2.900418E-05
569.308,-2.892695E-05
569.408,-2.889211E-05
569.508,-2.891471E-05
569.608,-2.889964E-05
569.7079,-2.885538E-05
569.8079,-2.882336E-05
569.9079,-2.88648E-05
570.0079,-2.884596E-05
570.1078,-2.878287E-05
570.2078,-2.884879E-05
570.3078,-2.881394E-05
570.4078,-2.877062E-05
570.5078,-2.880924E-05
570.6077,-2.878664E-05
570.7077,-2.873578E-05
570.8077,-2.871977E-05
570.9077,-2.874426E-05
571.0076,-2.873484E-05
571.1076,-2.866327E-05
571.2076,-2.869152E-05
571.3076,-2.871412E-05
571.4075,-2.863972E-05
571.5075,-2.864443E-05
571.6075,-2.866138E-05
571.7075,-2.862183E-05
571.8074,-2.860394E-05
571.9074,-2.862277E-05
572.0074,-2.858887E-05
572.1074,-2.857851E-05
572.2073,-2.855591E-05
572.3073,-2.857286E-05
572.4073,-2.857286E-05
572.5073,-2.855968E-05
572.6072,-2.854273E-05
572.7072,-2.852483E-05
572.8072,-2.852578E-05
572.9072,-2.849376E-05
573.0071,-2.850035E-05
573.1071,-2.849564E-05
573.2071,-2.846927E-05
573.3071,-2.844384E-05
573.407,-2.845138E-05
573.507,-2.840712E-05
573.607,-2.839581E-05
573.707,-2.841371E-05
573.8069,-2.838828E-05
573.9069,-2.836379E-05
574.0069,-2.837227E-05
574.1069,-2.836379E-05
574.2068,-2.833178E-05
574.3068,-2.833649E-05
574.4068,-2.833366E-05
574.5068,-2.829034E-05
574.6068,-2.828375E-05
574.7067,-2.829317E-05
574.8067,-2.828563E-05
574.9067,-2.824985E-05
575.0067,-2.826209E-05
575.1066,-2.824796E-05
575.2066,-2.823196E-05
575.3066,-2.822819E-05
575.4066,-2.822442E-05
575.5065,-2.820088E-05
575.6065,-2.818958E-05
575.7065,-2.819899E-05
575.8065,-2.816321E-05
575.9064,-2.815097E-05
576.0064,-2.815097E-05
576.1064,-2.813119E-05
576.2064,-2.811141E-05
576.3063,-2.80954E-05
576.4063,-2.809823E-05
576.5063,-2.808599E-05
576.6063,-2.808504E-05
576.7062,-2.806056E-05
576.8062,-2.803984E-05
576.9062,-2.805114E-05
577.0062,-2.80502E-05
577.1061,-2.800405E-05
577.2061,-2.79984E-05
577.3061,-2.802666E-05
577.4061,-2.802666E-05
577.506,-2.798616E-05
577.606,-2.798334E-05
577.706,-2.797769E-05
577.806,-2.795038E-05
577.9059,-2.795791E-05
578.0059,-2.795602E-05
578.1059,-2.792118E-05
578.2059,-2.79306E-05
578.3058,-2.791742E-05
578.4058,-2.789858E-05
578.5058,-2.787504E-05
578.6058,-2.789199E-05
578.7057,-2.784961E-05
578.8057,-2.784961E-05
578.9057,-2.784019E-05
579.0057,-2.783266E-05
579.1057,-2.779028E-05
579.2056,-2.779688E-05
579.3056,-2.779688E-05
579.4056,-2.77658E-05
579.5056,-2.774131E-05
579.6055,-2.778181E-05
579.7055,-2.774979E-05
579.8055,-2.771494E-05
579.9055,-2.773754E-05
580.0054,-2.772248E-05
580.1054,-2.767351E-05
580.2054,-2.767727E-05
580.3054,-2.768952E-05
580.4053,-2.767539E-05
580.5053,-2.76396E-05
580.6053,-2.767633E-05
580.7053,-2.766221E-05
580.8052,-2.761041E-05
580.9052,-2.764149E-05
581.0052,-2.762831E-05
581.1052,-2.756238E-05
581.2051,-2.758875E-05
581.3051,-2.760382E-05
581.4051,-2.75718E-05
581.5051,-2.756427E-05
581.605,-2.755202E-05
581.705,-2.756238E-05
581.805,-2.75087E-05
581.905,-2.750494E-05
582.0049,-2.750965E-05
582.1049,-2.75153E-05
582.2049,-2.748328E-05
582.3049,-2.748893E-05
582.4048,-2.748705E-05
582.5048,-2.747857E-05
582.6048,-2.745597E-05
582.7048,-2.744655E-05
582.8047,-2.743337E-05
582.9047,-2.739852E-05
583.0047,-2.741453E-05
583.1047,-2.73844E-05
583.2047,-2.738063E-05
583.3046,-2.736839E-05
583.4046,-2.737027E-05
583.5046,-2.73844E-05
583.6046,-2.735143E-05
583.7045,-2.73326E-05
583.8045,-2.736274E-05
583.9045,-2.730152E-05
584.0045,-2.729399E-05
584.1044,-2.729776E-05
584.2044,-2.728928E-05
584.3044,-2.727421E-05
584.4044,-2.725632E-05
584.5043,-2.725632E-05
584.6043,-2.725067E-05
584.7043,-2.721771E-05
584.8043,-2.724596E-05
584.9042,-2.722995E-05
585.0042,-2.720076E-05
585.1042,-2.717533E-05
585.2042,-2.718757E-05
585.3041,-2.717251E-05
585.4041,-2.714802E-05
585.5041,-2.714331E-05
585.6041,-2.715367E-05
585.704,-2.714708E-05
585.804,-2.712354E-05
585.904,-2.712919E-05
586.004,-2.712071E-05
586.1039,-2.708022E-05
586.2039,-2.708022E-05
586.3039,-2.708022E-05
586.4039,-2.706044E-05
586.5038,-2.702936E-05
586.6038,-2.702842E-05
586.7038,-2.702089E-05
586.8038,-2.699358E-05
586.9037,-2.698699E-05
587.0037,-2.698322E-05
587.1037,-2.700017E-05
587.2037,-2.695685E-05
587.3036,-2.692483E-05
587.4036,-2.694272E-05
587.5036,-2.693896E-05
587.6036,-2.690976E-05
587.7036,-2.692671E-05
587.8035,-2.692577E-05
587.9035,-2.689187E-05
588.0035,-2.691259E-05
588.1035,-2.688999E-05
588.2034,-2.687586E-05
588.3034,-2.684667E-05
588.4034,-2.686833E-05
588.5034,-2.684384E-05
588.6033,-2.680806E-05
588.7033,-2.683254E-05
588.8033,-2.681936E-05
588.9033,-2.679205E-05
589.0032,-2.680052E-05
589.1032,-2.676662E-05
589.2032,-2.675815E-05
589.3032,-2.676097E-05
589.4031,-2.673931E-05
589.5031,-2.672424E-05
589.6031,-2.673366E-05
589.7031,-2.672801E-05
589.803,-2.667904E-05
589.903,-2.669505E-05
590.003,-2.669881E-05
590.103,-2.666774E-05
590.2029,-2.662536E-05
590.3029,-2.666774E-05
590.4029,-2.666115E-05
590.5029,-2.663666E-05
590.6028,-2.665079E-05
590.7028,-2.663195E-05
590.8028,-2.661783E-05
590.9028,-2.662819E-05
591.0027,-2.663384E-05
591.1027,-2.659617E-05
591.2027,-2.658204E-05
591.3027,-2.658958E-05
591.4026,-2.657356E-05
591.5026,-2.655473E-05
591.6026,-2.656509E-05
591.7026,-2.65519E-05
591.8026,-2.650011E-05
591.9025,-2.653684E-05
592.0025,-2.649352E-05
592.1025,-2.649069E-05
592.2025,-2.647562E-05
592.3024,-2.648316E-05
592.4024,-2.644926E-05
592.5024,-2.644643E-05
592.6024,-2.646809E-05
592.7023,-2.646621E-05
592.8023,-2.640405E-05
592.9023,-2.642665E-05
593.0023,-2.642101E-05
593.1022,-2.638145E-05
593.2022,-2.638145E-05
593.3022,-2.636073E-05
593.4022,-2.635038E-05
593.5021,-2.632966E-05
593.6021,-2.634378E-05
593.7021,-2.631459E-05
593.8021,-2.632683E-05
593.902,-2.632872E-05
594.002,-2.63014E-05
594.102,-2.629105E-05
594.202,-2.631365E-05
594.3019,-2.62562E-05
594.4019,-2.625338E-05
594.5019,-2.627786E-05
594.6019,-2.627975E-05
594.7018,-2.622136E-05
594.8018,-2.623077E-05
594.9018,-2.624113E-05
595.0018,-2.621571E-05
595.1017,-2.61884E-05
595.2017,-2.620064E-05
595.3017,-2.618934E-05
595.4017,-2.614413E-05
595.5016,-2.615826E-05
595.6016,-2.617427E-05
595.7016,-2.613189E-05
595.8016,-2.610364E-05
595.9016,-2.612153E-05
596.0015,-2.613001E-05
596.1015,-2.609705E-05
596.2015,-2.60914E-05
596.3015,-2.610458E-05
596.4014,-2.60801E-05
596.5014,-2.606409E-05
596.6014,-2.607727E-05
596.7014,-2.603207E-05
596.8013,-2.604996E-05
596.9013,-2.604714E-05
597.0013,-2.601135E-05
597.1013,-2.601135E-05
597.2012,-2.600758E-05
597.3012,-2.599628E-05
597.4012,-2.599158E-05
597.5012,-2.597557E-05
597.6011,-2.595108E-05
597.7011,-2.596615E-05
597.8011,-2.594825E-05
597.9011,-2.593507E-05
598.001,-2.594355E-05
598.101,-2.591812E-05
598.201,-2.591341E-05
598.301,-2.591153E-05
598.4009,-2.593507E-05
598.5009,-2.589552E-05
598.6009,-2.585973E-05
598.7009,-2.592095E-05
598.8008,-2.587763E-05
598.9008,-2.585691E-05
599.0008,-2.587668E-05
599.1008,-2.585408E-05
599.2007,-2.5823E-05
599.3007,-2.582583E-05
599.4007,-2.582018E-05
599.5007,-2.580982E-05
599.6006,-2.579004E-05
599.7006,-2.581076E-05
599.8006,-2.580982E-05
599.9006,-2.576744E-05
600.0005,-2.577404E-05
