EXPID. 0489
[电化学]: i-t : @ 0(V) X 600(sec)
起始电位 (V),0
静置时间 (秒),0
运行时间 (秒),600
记录间隔,0.1
电解液 信息:
HNO3,0.4
0.1,-0.01005814
0.2,-0.01005814
0.3,-0.01005814
0.4,-0.01005814
0.5,-0.01005814
0.6,-0.01005814
0.7,-0.01005814
0.8000001,-0.01005814
0.9000001,-0.01005306
1,-0.009552828
1.1,-0.009001804
1.2,-0.008541198
1.3,-0.008176296
1.4,-0.007839971
1.5,-0.007557442
1.6,-0.007306829
1.7,-0.007078119
1.8,-0.006876143
1.9,-0.00669863
2,-0.006525038
2.1,-0.006375226
2.2,-0.006233318
2.3,-0.006099529
2.4,-0.005974071
2.5,-0.005859783
2.6,-0.005745472
2.7,-0.005633482
2.799999,-0.005527544
2.899999,-0.005422709
2.999999,-0.005310853
3.099999,-0.005200911
3.199999,-0.005093807
3.299999,-0.004977614
3.399999,-0.004848252
3.499999,-0.004710557
3.599999,-0.004553567
3.699999,-0.004409868
3.799999,-0.004289984
3.899998,-0.004185111
3.999998,-0.004088635
4.099998,-0.004004232
4.199998,-0.00392739
4.299998,-0.003856318
4.399998,-0.003791111
4.499998,-0.003730859
4.599998,-0.003673399
4.699998,-0.003620711
4.799998,-0.00357138
4.899998,-0.003523968
4.999998,-0.003479631
5.099998,-0.00343794
5.199997,-0.003397547
5.299997,-0.003359383
5.399997,-0.003323609
5.499997,-0.003288266
5.599997,-0.003255269
5.699997,-0.00322341
5.799997,-0.003192642
5.899997,-0.003163258
5.999997,-0.003134406
6.099997,-0.003107426
6.199996,-0.003080971
6.299996,-0.003055047
6.399996,-0.003030885
6.499996,-0.003006949
6.599996,-0.002983663
6.699996,-0.002962264
6.799996,-0.002940794
6.899996,-0.002919931
6.999996,-0.002898965
7.099996,-0.002879229
7.199996,-0.002859548
7.299995,-0.002840325
7.399995,-0.002821881
7.499995,-0.002803876
7.599995,-0.002785883
7.699995,-0.00276897
7.799995,-0.002752227
7.899995,-0.002735589
7.999995,-0.002719871
8.099995,-0.002704226
8.199995,-0.002688781
8.299995,-0.002673943
8.399996,-0.002659293
8.499996,-0.002645139
8.599997,-0.002631233
8.699997,-0.002617508
8.799997,-0.002603871
8.899998,-0.0025908
8.999998,-0.002577855
9.099998,-0.002565402
9.199999,-0.002552934
9.299999,-0.002541211
9.4,-0.002529398
9.5,-0.002517732
9.6,-0.002506346
9.700001,-0.002494838
9.800001,-0.002483546
9.900002,-0.002472955
10,-0.002462149
10.1,-0.002451435
10.2,-0.002441056
10.3,-0.002430719
10.4,-0.002420629
10.5,-0.00241092
10.6,-0.002401192
10.7,-0.002391721
10.8,-0.00238231
10.90001,-0.002373079
11.00001,-0.002364345
11.10001,-0.002355436
11.20001,-0.002347142
11.30001,-0.002338304
11.40001,-0.002329883
11.50001,-0.002321947
11.60001,-0.002313441
11.70001,-0.002305575
11.80001,-0.002297487
11.90001,-0.002289469
12.00001,-0.002281462
12.10001,-0.002273511
12.20001,-0.002265777
12.30001,-0.002258093
12.40001,-0.002250493
12.50001,-0.002243278
12.60001,-0.002235951
12.70001,-0.00222868
12.80001,-0.002221643
12.90001,-0.002214478
13.00001,-0.002207555
13.10001,-0.00220054
13.20001,-0.002193665
13.30001,-0.002187117
13.40001,-0.002180315
13.50002,-0.002173682
13.60002,-0.002167466
13.70002,-0.002160871
13.80002,-0.002154769
13.90002,-0.002149159
14.00002,-0.002143023
14.10002,-0.002137357
14.20002,-0.002131549
14.30002,-0.002125359
14.40002,-0.002119286
14.50002,-0.002113429
14.60002,-0.002107727
14.70002,-0.002101776
14.80002,-0.002096303
14.90002,-0.002090783
15.00002,-0.002085177
15.10002,-0.002080119
15.20002,-0.00207467
15.30002,-0.002069419
15.40002,-0.002064493
15.50002,-0.002059217
15.60002,-0.002054303
15.70002,-0.002049621
15.80002,-0.002044906
15.90002,-0.002040134
16.00002,-0.002034998
16.10003,-0.002029821
16.20003,-0.002024937
16.30003,-0.002019468
16.40003,-0.002014213
16.50003,-0.002009121
16.60003,-0.002004158
16.70003,-0.001999307
16.80003,-0.001994244
16.90003,-0.001989513
17.00003,-0.001984915
17.10003,-0.001980008
17.20003,-0.001975668
17.30003,-0.001970876
17.40003,-0.001966213
17.50003,-0.001961702
17.60003,-0.00195717
17.70003,-0.001952731
17.80003,-0.001948076
17.90003,-0.001943502
18.00003,-0.001939163
18.10003,-0.001934725
18.20003,-0.001930232
18.30003,-0.001925931
18.40003,-0.001921582
18.50003,-0.001917217
18.60003,-0.001913179
18.70004,-0.001909061
18.80004,-0.001904911
18.90004,-0.001900893
19.00004,-0.001896804
19.10004,-0.001892825
19.20004,-0.001888703
19.30004,-0.001885058
19.40004,-0.00188122
19.50004,-0.001877367
19.60004,-0.001873656
19.70004,-0.00186983
19.80004,-0.001865991
19.90004,-0.001862292
20.00004,-0.00185846
20.10004,-0.001854756
20.20004,-0.001851231
20.30004,-0.001847561
20.40004,-0.001843864
20.50004,-0.001840398
20.60004,-0.001836731
20.70004,-0.001833368
20.80004,-0.001829838
20.90004,-0.001826597
21.00004,-0.001823216
21.10004,-0.001819958
21.20004,-0.00181668
21.30005,-0.001813339
21.40005,-0.001810091
21.50005,-0.001806914
21.60005,-0.001803709
21.70005,-0.001800659
21.80005,-0.001797249
21.90005,-0.001794324
22.00005,-0.001791122
22.10005,-0.001787753
22.20005,-0.001784578
22.30005,-0.001781354
22.40005,-0.001777948
22.50005,-0.001774867
22.60005,-0.001771766
22.70005,-0.001768542
22.80005,-0.001765478
22.90005,-0.001762497
23.00005,-0.001759408
23.10005,-0.001756466
23.20005,-0.001753666
23.30005,-0.001750758
23.40005,-0.001747897
23.50005,-0.001745302
23.60005,-0.001742406
23.70005,-0.001739377
23.80005,-0.001736573
23.90005,-0.001733643
24.00006,-0.001730701
24.10006,-0.001727956
24.20006,-0.001725254
24.30006,-0.001722357
24.40006,-0.001719702
24.50006,-0.00171699
24.60006,-0.001714148
24.70006,-0.001711435
24.80006,-0.001708668
24.90006,-0.001706008
25.00006,-0.001703421
25.10006,-0.001700869
25.20006,-0.001698234
25.30006,-0.001695736
25.40006,-0.001693126
25.50006,-0.001690369
25.60006,-0.001687745
25.70006,-0.001685298
25.80006,-0.001682634
25.90006,-0.001679968
26.00006,-0.001677404
26.10006,-0.001674891
26.20006,-0.001672346
26.30006,-0.001669864
26.40006,-0.001667341
26.50006,-0.001664774
26.60007,-0.001662361
26.70007,-0.001659858
26.80007,-0.001657463
26.90007,-0.001655025
27.00007,-0.001652847
27.10007,-0.001650459
27.20007,-0.00164806
27.30007,-0.001645745
27.40007,-0.001643298
27.50007,-0.001640826
27.60007,-0.001638496
27.70007,-0.00163611
27.80007,-0.001633821
27.90007,-0.00163155
28.00007,-0.001629254
28.10007,-0.001626993
28.20007,-0.001624594
28.30007,-0.001622339
28.40007,-0.001619997
28.50007,-0.001617623
28.60007,-0.001615387
28.70007,-0.001613176
28.80007,-0.0016108
28.90007,-0.001608613
29.00007,-0.001606418
29.10007,-0.001604103
29.20008,-0.001601968
29.30008,-0.001599958
29.40008,-0.001597787
29.50008,-0.001595534
29.60008,-0.001593438
29.70008,-0.001591218
29.80008,-0.001589109
29.90008,-0.001586938
30.00008,-0.001584781
30.10008,-0.001582597
30.20008,-0.001580358
30.30008,-0.001578253
30.40008,-0.0015761
30.50008,-0.001573992
30.60008,-0.001571899
30.70008,-0.001569848
30.80008,-0.001567748
30.90008,-0.001565648
31.00008,-0.001563634
31.10008,-0.001561619
31.20008,-0.001559632
31.30008,-0.001557772
31.40008,-0.001555846
31.50008,-0.001554173
31.60008,-0.001552218
31.70008,-0.001550311
31.80009,-0.001548422
31.90009,-0.001546408
32.00008,-0.001544523
32.10008,-0.001542608
32.20008,-0.001540563
32.30008,-0.001538621
32.40008,-0.00153666
32.50008,-0.001534633
32.60007,-0.001532532
32.70007,-0.001530608
32.80007,-0.001528618
32.90007,-0.001526643
33.00007,-0.00152479
33.10007,-0.00152279
33.20007,-0.001520963
33.30006,-0.001519096
33.40006,-0.001517225
33.50006,-0.00151535
33.60006,-0.001513453
33.70006,-0.001511663
33.80006,-0.001509744
33.90005,-0.001507826
34.00005,-0.001506078
34.10005,-0.001504087
34.20005,-0.001502133
34.30005,-0.001500262
34.40005,-0.0014983
34.50005,-0.001496423
34.60004,-0.00149463
34.70004,-0.001492728
34.80004,-0.001490944
34.90004,-0.00148916
35.00004,-0.001487356
35.10004,-0.001485526
35.20004,-0.001483686
35.30003,-0.001481871
35.40003,-0.001480183
35.50003,-0.001478311
35.60003,-0.001476621
35.70003,-0.001474958
35.80003,-0.001473158
35.90002,-0.001471589
36.00002,-0.0014699
36.10002,-0.001468089
36.20002,-0.00146645
36.30002,-0.001464679
36.40002,-0.001462855
36.50002,-0.001461119
36.60001,-0.001459345
36.70001,-0.001457565
36.80001,-0.001455846
36.90001,-0.001454151
37.00001,-0.001452424
37.10001,-0.001450679
37.2,-0.001448962
37.3,-0.001447294
37.4,-0.001445569
37.5,-0.001443899
37.6,-0.001442296
37.7,-0.001440703
37.8,-0.001439112
37.89999,-0.001437453
37.99999,-0.001435814
38.09999,-0.001434299
38.19999,-0.001432669
38.29999,-0.001431069
38.39999,-0.001429439
38.49998,-0.001427751
38.59998,-0.001426167
38.69998,-0.001424547
38.79998,-0.001422931
38.89998,-0.001421311
38.99998,-0.001419678
39.09998,-0.001418107
39.19997,-0.00141642
39.29997,-0.001414831
39.39997,-0.001413219
39.49997,-0.001411544
39.59997,-0.001409969
39.69997,-0.001408376
39.79996,-0.001406841
39.89996,-0.001405284
39.99996,-0.001403696
40.09996,-0.001402159
40.19996,-0.001400534
40.29996,-0.001398895
40.39996,-0.001397407
40.49995,-0.001395877
40.59995,-0.001394251
40.69995,-0.001392724
40.79995,-0.001391259
40.89995,-0.001389678
40.99995,-0.001388189
41.09995,-0.001386698
41.19994,-0.001385266
41.29994,-0.00138369
41.39994,-0.001382396
41.49994,-0.001380867
41.59994,-0.001379226
41.69994,-0.001377829
41.79993,-0.001376353
41.89993,-0.001374875
41.99993,-0.001373522
42.09993,-0.001372056
42.19993,-0.001370629
42.29993,-0.001369185
42.39993,-0.001367716
42.49992,-0.001366247
42.59992,-0.001364625
42.69992,-0.001363037
42.79992,-0.00136146
42.89992,-0.0013598
42.99992,-0.001358205
43.09991,-0.00135649
43.19991,-0.001354935
43.29991,-0.001353335
43.39991,-0.00135164
43.49991,-0.001350188
43.59991,-0.00134859
43.69991,-0.001346969
43.7999,-0.001345418
43.8999,-0.001343835
43.9999,-0.001342287
44.0999,-0.001340819
44.1999,-0.001339325
44.2999,-0.001337816
44.39989,-0.001336374
44.49989,-0.001334896
44.59989,-0.001333476
44.69989,-0.001332121
44.79989,-0.001330642
44.89989,-0.001329333
44.99989,-0.001327967
45.09988,-0.001326461
45.19988,-0.001325036
45.29988,-0.001323711
45.39988,-0.001322249
45.49988,-0.001320855
45.59988,-0.001319485
45.69987,-0.001318133
45.79987,-0.001316712
45.89987,-0.001315337
45.99987,-0.001313891
46.09987,-0.001312574
46.19987,-0.001311243
46.29987,-0.001309951
46.39986,-0.001308498
46.49986,-0.001307164
46.59986,-0.001305822
46.69986,-0.001304433
46.79986,-0.001303047
46.89986,-0.001301734
46.99986,-0.001300455
47.09985,-0.001299081
47.19985,-0.001297758
47.29985,-0.001296464
47.39985,-0.001295129
47.49985,-0.001293888
47.59985,-0.001292535
47.69984,-0.001291226
47.79984,-0.001289966
47.89984,-0.001288628
47.99984,-0.001287211
48.09984,-0.001285989
48.19984,-0.001284643
48.29984,-0.001283255
48.39983,-0.001281965
48.49983,-0.00128063
48.59983,-0.00127925
48.69983,-0.001277923
48.79983,-0.00127659
48.89983,-0.001275223
48.99982,-0.001273991
49.09982,-0.001272697
49.19982,-0.00127135
49.29982,-0.001270107
49.39982,-0.001268742
49.49982,-0.001267489
49.59982,-0.001266154
49.69981,-0.001264843
49.79981,-0.001263527
49.89981,-0.001262298
49.99981,-0.001260967
50.09981,-0.001259628
50.19981,-0.00125848
50.2998,-0.001257169
50.3998,-0.001255818
50.4998,-0.001254561
50.5998,-0.001253256
50.6998,-0.001251938
50.7998,-0.001250643
50.8998,-0.001249357
50.99979,-0.001248123
51.09979,-0.001246854
51.19979,-0.001245572
51.29979,-0.001244308
51.39979,-0.00124309
51.49979,-0.001241789
51.59978,-0.001240554
51.69978,-0.001239293
51.79978,-0.001238071
51.89978,-0.001236951
51.99978,-0.001235667
52.09978,-0.001234471
52.19978,-0.001233246
52.29977,-0.001232088
52.39977,-0.001230773
52.49977,-0.001229604
52.59977,-0.001228339
52.69977,-0.001227124
52.79977,-0.001226014
52.89977,-0.001224807
52.99976,-0.001223514
53.09976,-0.00122242
53.19976,-0.001221192
53.29976,-0.001219905
53.39976,-0.001218744
53.49976,-0.001217636
53.59975,-0.001216373
53.69975,-0.001215172
53.79975,-0.001213989
53.89975,-0.001212753
53.99975,-0.001211447
54.09975,-0.001210303
54.19975,-0.001208997
54.29974,-0.001207783
54.39974,-0.001206688
54.49974,-0.001205509
54.59974,-0.001204417
54.69974,-0.001203261
54.79974,-0.001202153
54.89973,-0.001201074
54.99973,-0.001199882
55.09973,-0.001198931
55.19973,-0.001197739
55.29973,-0.001196551
55.39973,-0.001195391
55.49973,-0.001194155
55.59972,-0.001192926
55.69972,-0.001191615
55.79972,-0.001190284
55.89972,-0.001189136
55.99972,-0.001187803
56.09972,-0.001186543
56.19971,-0.001185345
56.29971,-0.001184071
56.39971,-0.001182782
56.49971,-0.001181578
56.59971,-0.001180339
56.69971,-0.001179109
56.79971,-0.00117793
56.8997,-0.001176767
56.9997,-0.00117551
57.0997,-0.001174355
57.1997,-0.001173203
57.2997,-0.001171934
57.3997,-0.001170761
57.49969,-0.001169662
57.59969,-0.001168445
57.69969,-0.001167287
57.79969,-0.001166192
57.89969,-0.001164976
57.99969,-0.001163872
58.09969,-0.001162747
58.19968,-0.00116166
58.29968,-0.00116065
58.39968,-0.001159601
58.49968,-0.001158579
58.59968,-0.001157486
58.69968,-0.001156377
58.79967,-0.001155322
58.89967,-0.001154208
58.99967,-0.001153227
59.09967,-0.001152091
59.19967,-0.001150969
59.29967,-0.001150006
59.39967,-0.001148907
59.49966,-0.001147794
59.59966,-0.001146741
59.69966,-0.001145638
59.79966,-0.001144482
59.89966,-0.00114332
59.99966,-0.001142159
60.09966,-0.001141089
60.19965,-0.001139806
60.29965,-0.001138626
60.39965,-0.001137445
60.49965,-0.001136217
60.59965,-0.001135056
60.69965,-0.00113392
60.79964,-0.001132714
60.89964,-0.001131579
60.99964,-0.001130473
61.09964,-0.001129378
61.19964,-0.001128283
61.29964,-0.001127322
61.39964,-0.001126208
61.49963,-0.001125141
61.59963,-0.001124093
61.69963,-0.001123117
61.79963,-0.001121948
61.89963,-0.001120969
61.99963,-0.001119925
62.09962,-0.001118806
62.19962,-0.001117873
62.29962,-0.00111677
62.39962,-0.001115757
62.49962,-0.001114714
62.59962,-0.001113587
62.69962,-0.001112495
62.79961,-0.001111426
62.89961,-0.001110348
62.99961,-0.001109264
63.09961,-0.001108088
63.19961,-0.001107024
63.29961,-0.001105929
63.3996,-0.001104802
63.4996,-0.001103753
63.5996,-0.001102676
63.6996,-0.00110158
63.7996,-0.001100545
63.8996,-0.001099501
63.9996,-0.001098461
64.09959,-0.001097407
64.19959,-0.001096356
64.29959,-0.001095279
64.39959,-0.001094252
64.49959,-0.001093229
64.59959,-0.001092205
64.69958,-0.001091161
64.79958,-0.001090133
64.89958,-0.001089104
64.99958,-0.001088151
65.09958,-0.001087059
65.19958,-0.001086064
65.29958,-0.001085056
65.39957,-0.001084029
65.49957,-0.001083079
65.59957,-0.001082011
65.69957,-0.001081017
65.79957,-0.001080048
65.89957,-0.001079023
65.99957,-0.00107804
66.09956,-0.001077042
66.19956,-0.001076183
66.29956,-0.001075218
66.39956,-0.001074253
66.49956,-0.001073306
66.59956,-0.001072277
66.69955,-0.00107127
66.79955,-0.0010703
66.89955,-0.001069356
66.99955,-0.001068452
67.09955,-0.001067634
67.19955,-0.001066529
67.29955,-0.001065576
67.39954,-0.001064593
67.49954,-0.001063544
67.59954,-0.001062552
67.69954,-0.00106157
67.79954,-0.001060613
67.89954,-0.001059571
67.99953,-0.001058622
68.09953,-0.001057712
68.19953,-0.00105666
68.29953,-0.001055693
68.39953,-0.001054634
68.49953,-0.001053566
68.59953,-0.001052525
68.69952,-0.001051495
68.79952,-0.00105047
68.89952,-0.001049453
68.99952,-0.001048453
69.09952,-0.001047514
69.19952,-0.001046471
69.29951,-0.001045468
69.39951,-0.001044496
69.49951,-0.001043473
69.59951,-0.001042514
69.69951,-0.001041553
69.79951,-0.001040577
69.89951,-0.001039637
69.9995,-0.001038674
70.0995,-0.001037718
70.1995,-0.001036883
70.2995,-0.001035936
70.3995,-0.001034856
70.4995,-0.001034024
70.59949,-0.001033074
70.69949,-0.00103205
70.79949,-0.001031021
70.89949,-0.001030052
70.99949,-0.001029075
71.09949,-0.001028079
71.19949,-0.001027158
71.29948,-0.001026199
71.39948,-0.001025274
71.49948,-0.001024323
71.59948,-0.001023473
71.69948,-0.001022462
71.79948,-0.001021623
71.89948,-0.001020715
71.99947,-0.001019769
72.09947,-0.001018901
72.19947,-0.001017997
72.29947,-0.00101708
72.39947,-0.001016214
72.49947,-0.001015333
72.59946,-0.00101449
72.69946,-0.001013532
72.79946,-0.001012544
72.89946,-0.001011614
72.99946,-0.001010651
73.09946,-0.001009784
73.19946,-0.001008808
73.29945,-0.00100781
73.39945,-0.001006946
73.49945,-0.001005989
73.59945,-0.001005004
73.69945,-0.001004078
73.79945,-0.001003103
73.89944,-0.001002174
73.99944,-0.00100116
74.09944,-0.00100022
74.19944,-0.0009993002
74.29944,-0.0009982634
74.39944,-0.0009973584
74.49944,-0.0009964326
74.59943,-0.0009954419
74.69943,-0.0009946442
74.79943,-0.000993742
74.89943,-0.0009928107
74.99943,-0.0009920093
75.09943,-0.000991091
75.19942,-0.0009902096
75.29942,-0.000989281
75.39942,-0.0009883289
75.49942,-0.000987408
75.59942,-0.0009864615
75.69942,-0.0009855914
75.79942,-0.0009846759
75.89941,-0.0009837097
75.99941,-0.000982914
76.09941,-0.0009819224
76.19941,-0.0009810014
76.29941,-0.0009801321
76.39941,-0.0009791979
76.4994,-0.0009783258
76.5994,-0.000977451
76.6994,-0.0009765564
76.7994,-0.0009757286
76.8994,-0.0009747568
76.9994,-0.0009739242
77.0994,-0.0009729562
77.19939,-0.0009720276
77.29939,-0.0009711763
77.39939,-0.0009702289
77.49939,-0.000969273
77.59939,-0.0009684132
77.69939,-0.0009675308
77.79939,-0.0009666202
77.89938,-0.0009656879
77.99938,-0.0009648469
78.09938,-0.0009639589
78.19938,-0.0009630557
78.29938,-0.0009622308
78.39938,-0.0009613446
78.49937,-0.0009604264
78.59937,-0.0009595553
78.69937,-0.0009587125
78.79937,-0.0009578385
78.89937,-0.0009570061
78.99937,-0.0009561754
79.09937,-0.000955325
79.19936,-0.0009544803
79.29936,-0.0009536272
79.39936,-0.0009527739
79.49936,-0.0009519085
79.59936,-0.000951044
79.69936,-0.0009501559
79.79935,-0.0009493714
79.89935,-0.0009485389
79.99935,-0.0009476876
80.09935,-0.0009468212
80.19935,-0.0009460414
80.29935,-0.0009452834
80.39935,-0.0009443548
80.49934,-0.0009435836
80.59934,-0.000942768
80.69934,-0.0009419308
80.79934,-0.000941119
80.89934,-0.0009403016
80.99934,-0.0009395285
81.09933,-0.0009386978
81.19933,-0.0009379068
81.29933,-0.0009371251
81.39933,-0.0009361768
81.49933,-0.0009353217
81.59933,-0.0009344319
81.69933,-0.0009335494
81.79932,-0.0009326887
81.89932,-0.0009318948
81.99932,-0.0009309521
82.09932,-0.0009300236
82.19932,-0.0009291948
82.29932,-0.0009283134
82.39931,-0.0009274074
82.49931,-0.0009265599
82.59931,-0.0009257029
82.69931,-0.0009248421
82.79931,-0.0009239955
82.89931,-0.0009231009
82.99931,-0.0009222787
83.0993,-0.0009214529
83.1993,-0.000920642
83.2993,-0.0009197625
83.3993,-0.0009189978
83.4993,-0.0009182397
83.5993,-0.0009174241
83.6993,-0.0009166708
83.79929,-0.0009158693
83.89929,-0.0009150566
83.99929,-0.000914307
84.09929,-0.0009135291
84.19929,-0.000912788
84.29929,-0.0009120082
84.39928,-0.0009111767
84.49928,-0.0009103649
84.59928,-0.0009094966
84.69928,-0.0009086528
84.79928,-0.0009077912
84.89928,-0.0009069446
84.99928,-0.0009061507
85.09927,-0.0009052955
85.19927,-0.0009044753
85.29927,-0.0009036514
85.39927,-0.0009028084
85.49927,-0.0009019873
85.59927,-0.0009012047
85.69926,-0.0009003684
85.79926,-0.0008995585
85.89926,-0.0008987976
85.99926,-0.0008979962
86.09926,-0.0008972004
86.19926,-0.0008964019
86.29926,-0.0008956626
86.39925,-0.0008949441
86.49925,-0.0008941153
86.59925,-0.000893377
86.69925,-0.0008925756
86.79925,-0.000891827
86.89925,-0.0008910735
86.99924,-0.0008903155
87.09924,-0.0008894566
87.19924,-0.0008886411
87.29924,-0.0008878622
87.39924,-0.0008870306
87.49924,-0.0008862764
87.59924,-0.0008854749
87.69923,-0.0008846622
87.79923,-0.0008839484
87.89923,-0.0008831686
87.99923,-0.0008823372
88.09923,-0.0008815338
88.19923,-0.0008807691
88.29922,-0.0008799451
88.39922,-0.0008791757
88.49922,-0.0008784506
88.59922,-0.0008776746
88.69922,-0.0008768619
88.79922,-0.0008760623
88.89922,-0.0008753278
88.99921,-0.000874548
89.09921,-0.0008737136
89.19921,-0.0008729433
89.29921,-0.000872222
89.39921,-0.0008714724
89.49921,-0.000870684
89.59921,-0.0008700372
89.6992,-0.0008692348
89.7992,-0.0008685031
89.8992,-0.0008677242
89.9992,-0.0008669841
90.0992,-0.0008662551
90.1992,-0.0008654717
90.29919,-0.000864787
90.39919,-0.0008640195
90.49919,-0.0008632265
90.59919,-0.0008625127
90.69919,-0.0008617565
90.79919,-0.0008610276
90.89919,-0.0008602648
90.99918,-0.0008594709
91.09918,-0.0008587081
91.19918,-0.0008578906
91.29918,-0.0008571025
91.39918,-0.0008563341
91.49918,-0.0008555204
91.59917,-0.0008546709
91.69917,-0.0008539524
91.79917,-0.000853199
91.89917,-0.0008524126
91.99917,-0.0008516395
92.09917,-0.0008508965
92.19917,-0.0008501252
92.29916,-0.0008493219
92.39916,-0.0008486127
92.49916,-0.0008478952
92.59916,-0.000847074
92.69916,-0.0008463432
92.79916,-0.0008456387
92.89915,-0.0008448383
92.99915,-0.0008441273
93.09915,-0.0008433927
93.19915,-0.0008426093
93.29915,-0.0008419312
93.39915,-0.0008412023
93.49915,-0.0008404846
93.59914,-0.0008397577
93.69914,-0.0008390768
93.79914,-0.0008383197
93.89914,-0.0008376199
93.99914,-0.000836956
94.09914,-0.0008361565
94.19913,-0.000835406
94.29913,-0.0008347298
94.39913,-0.0008339764
94.49913,-0.0008332126
94.59913,-0.0008324932
94.69913,-0.0008317605
94.79913,-0.000830961
94.89912,-0.0008302839
94.99912,-0.0008295634
95.09912,-0.0008288458
95.19912,-0.0008281489
95.29912,-0.0008274878
95.39912,-0.0008268785
95.49911,-0.0008261176
95.59911,-0.000825368
95.69911,-0.0008246891
95.79911,-0.0008239949
95.89911,-0.000823267
95.99911,-0.0008225202
96.09911,-0.0008217989
96.1991,-0.0008211104
96.2991,-0.0008204051
96.3991,-0.0008196583
96.4991,-0.0008189577
96.5991,-0.0008182457
96.6991,-0.0008174867
96.7991,-0.0008168058
96.89909,-0.0008161757
96.99909,-0.0008155119
97.09909,-0.0008147924
97.19909,-0.0008141011
97.29909,-0.0008134089
97.39909,-0.0008126735
97.49908,-0.0008119399
97.59908,-0.000811258
97.69908,-0.0008105555
97.79908,-0.000809837
97.89908,-0.0008091335
97.99908,-0.0008083895
98.09908,-0.0008076757
98.19907,-0.000806976
98.29907,-0.0008062857
98.39907,-0.0008055238
98.49907,-0.000804859
98.59907,-0.0008041451
98.69907,-0.0008034388
98.79906,-0.00080271
98.89906,-0.0008020922
98.99906,-0.0008013482
99.09906,-0.0008006391
99.19906,-0.0007999667
99.29906,-0.0007993066
99.39906,-0.000798572
99.49905,-0.0007978384
99.59905,-0.0007971942
99.69905,-0.0007964993
99.79905,-0.0007958278
99.89905,-0.0007950791
99.99905,-0.0007943757
100.099,-0.0007937381
100.199,-0.0007930883
100.299,-0.0007923924
100.399,-0.0007917745
100.499,-0.000791137
100.599,-0.0007904355
100.699,-0.0007897961
100.799,-0.0007891377
100.899,-0.0007884126
100.999,-0.0007877497
101.099,-0.0007870762
101.199,-0.0007863935
101.299,-0.0007856967
101.399,-0.0007850666
101.499,-0.0007843453
101.599,-0.000783623
101.699,-0.0007829421
101.799,-0.0007822405
101.899,-0.0007814993
101.999,-0.0007808618
102.099,-0.0007802242
102.199,-0.0007795113
102.299,-0.0007788192
102.399,-0.000778158
102.499,-0.0007774188
102.599,-0.0007767587
102.699,-0.0007761513
102.799,-0.0007754892
102.899,-0.0007748149
102.999,-0.0007741859
103.099,-0.000773505
103.199,-0.0007727959
103.299,-0.0007721526
103.399,-0.0007715151
103.499,-0.0007707778
103.599,-0.0007701232
103.699,-0.0007695102
103.799,-0.0007687982
103.899,-0.0007681503
103.999,-0.0007675071
104.099,-0.0007668403
104.199,-0.000766183
104.299,-0.0007655154
104.399,-0.000764857
104.499,-0.0007642242
104.599,-0.0007635839
104.699,-0.0007629387
104.799,-0.0007622984
104.899,-0.0007617267
104.999,-0.0007610685
105.099,-0.0007603838
105.199,-0.0007597952
105.299,-0.0007591276
105.399,-0.0007584015
105.499,-0.0007577432
105.599,-0.0007571198
105.699,-0.0007564879
105.799,-0.0007558804
105.899,-0.0007552966
105.999,-0.0007547108
106.099,-0.0007541411
106.199,-0.0007535459
106.299,-0.0007529177
106.3989,-0.0007522689
106.4989,-0.0007517274
106.5989,-0.0007510532
106.6989,-0.0007503657
106.7989,-0.0007497328
106.8989,-0.0007490152
106.9989,-0.0007483353
107.0989,-0.0007476704
107.1989,-0.0007470272
107.2989,-0.0007463605
107.3989,-0.0007456806
107.4989,-0.0007450657
107.5989,-0.0007444027
107.6989,-0.0007436936
107.7989,-0.0007430842
107.8989,-0.0007424825
107.9989,-0.0007418063
108.0989,-0.0007411527
108.1989,-0.0007405576
108.2989,-0.000739904
108.3989,-0.0007392618
108.4989,-0.0007386355
108.5989,-0.0007379631
108.6989,-0.0007373613
108.7989,-0.0007367313
108.8989,-0.0007361606
108.9989,-0.0007356191
109.0989,-0.0007350278
109.1989,-0.0007345013
109.2989,-0.0007338863
109.3989,-0.0007333496
109.4989,-0.0007327704
109.5989,-0.0007321131
109.6989,-0.0007315066
109.7989,-0.0007308577
109.8989,-0.0007301694
109.9989,-0.000729528
110.0989,-0.0007288725
110.1989,-0.0007282294
110.2989,-0.0007275259
110.3989,-0.0007269137
110.4989,-0.0007263148
110.5989,-0.0007256415
110.6989,-0.000725003
110.7989,-0.0007243852
110.8989,-0.0007237128
110.9989,-0.0007230668
111.0989,-0.000722434
111.1989,-0.0007218049
111.2989,-0.0007211852
111.3989,-0.0007205636
111.4989,-0.0007199036
111.5989,-0.0007192687
111.6989,-0.000718684
111.7989,-0.0007180399
111.8989,-0.0007174305
111.9989,-0.0007168174
112.0989,-0.000716195
112.1989,-0.0007155885
112.2989,-0.0007149915
112.3989,-0.0007143661
112.4989,-0.0007137286
112.5989,-0.0007131767
112.6989,-0.0007125721
112.7989,-0.0007119167
112.8988,-0.0007113451
112.9988,-0.0007107998
113.0988,-0.0007101623
113.1988,-0.0007096113
113.2988,-0.0007090322
113.3988,-0.00070842
113.4988,-0.000707855
113.5988,-0.0007072467
113.6988,-0.0007066006
113.7988,-0.0007060026
113.8988,-0.0007054263
113.9988,-0.0007048113
114.0988,-0.0007041823
114.1988,-0.0007036021
114.2988,-0.0007029693
114.3988,-0.0007024184
114.4988,-0.0007018194
114.5988,-0.0007012035
114.6988,-0.000700582
114.7988,-0.0007000123
114.8988,-0.0006993794
114.9988,-0.0006987909
115.0988,-0.0006982248
115.1988,-0.000697641
115.2988,-0.0006970543
115.3988,-0.0006964883
115.4988,-0.0006958978
115.5988,-0.000695282
115.6988,-0.0006947093
115.7988,-0.0006941405
115.8988,-0.0006935727
115.9988,-0.0006929304
116.0988,-0.000692372
116.1988,-0.0006918051
116.2988,-0.0006911694
116.3988,-0.0006906167
116.4988,-0.0006900554
116.5988,-0.000689447
116.6988,-0.0006889262
116.7988,-0.000688365
116.8988,-0.0006877481
116.9988,-0.0006871792
117.0988,-0.0006866538
117.1988,-0.0006860634
117.2988,-0.0006854521
117.3988,-0.0006849276
117.4988,-0.0006843466
117.5988,-0.0006837175
117.6988,-0.0006831684
117.7988,-0.0006825959
117.8988,-0.0006819744
117.9988,-0.0006814234
118.0988,-0.0006808546
118.1988,-0.0006802736
118.2988,-0.0006796803
118.3988,-0.0006791303
118.4988,-0.0006785982
118.5988,-0.0006780304
118.6988,-0.00067747
118.7988,-0.000676855
118.8988,-0.0006762467
118.9988,-0.0006757071
119.0988,-0.000675143
119.1988,-0.0006745121
119.2988,-0.0006739405
119.3988,-0.0006733302
119.4987,-0.0006727839
119.5987,-0.0006721662
119.6987,-0.0006715805
119.7987,-0.0006710098
119.8987,-0.0006704372
119.9987,-0.0006699192
120.0987,-0.0006692751
120.1987,-0.0006687138
120.2987,-0.0006681525
120.3987,-0.0006675912
120.4987,-0.0006670338
120.5987,-0.000666481
120.6987,-0.0006658943
120.7987,-0.0006653236
120.8987,-0.0006647802
120.9987,-0.0006642604
121.0987,-0.0006637349
121.1987,-0.0006632584
121.2987,-0.000662714
121.3987,-0.0006621405
121.4987,-0.0006616969
121.5987,-0.000661051
121.6987,-0.0006604549
121.7987,-0.000659903
121.8987,-0.0006593257
121.9987,-0.0006587437
122.0987,-0.0006581335
122.1987,-0.000657559
122.2987,-0.000657009
122.3987,-0.0006564393
122.4987,-0.0006558686
122.5987,-0.000655362
122.6987,-0.0006548289
122.7987,-0.0006542715
122.8987,-0.0006537742
122.9987,-0.0006531988
123.0987,-0.0006526206
123.1987,-0.0006520801
123.2987,-0.0006515338
123.3987,-0.0006509857
123.4987,-0.0006504141
123.5987,-0.0006499102
123.6987,-0.0006493349
123.7987,-0.0006487774
123.8987,-0.0006482529
123.9987,-0.0006476595
124.0987,-0.0006471096
124.1987,-0.0006465634
124.2987,-0.0006459729
124.3987,-0.0006454483
124.4987,-0.0006449398
124.5987,-0.0006443692
124.6987,-0.0006438446
124.7987,-0.0006433238
124.8987,-0.0006427842
124.9987,-0.000642221
125.0987,-0.0006417191
125.1987,-0.0006411852
125.2987,-0.0006406342
125.3987,-0.0006401474
125.4987,-0.0006395964
125.5987,-0.0006390248
125.6987,-0.0006385285
125.7987,-0.0006379465
125.8987,-0.0006373711
125.9986,-0.000636872
126.0986,-0.0006363616
126.1986,-0.0006357664
126.2986,-0.0006352164
126.3986,-0.0006347211
126.4986,-0.0006341862
126.5986,-0.0006336296
126.6986,-0.000633156
126.7986,-0.0006326126
126.8986,-0.0006320729
126.9986,-0.0006315465
127.0986,-0.000630941
127.1986,-0.0006304673
127.2986,-0.0006299427
127.3986,-0.0006293928
127.4986,-0.0006288842
127.5986,-0.0006283493
127.6986,-0.0006277909
127.7986,-0.0006272476
127.8986,-0.0006267484
127.9986,-0.0006262041
128.0986,-0.0006256758
128.1986,-0.0006251691
128.2986,-0.0006246502
128.3986,-0.0006240983
128.4986,-0.0006235823
128.5986,-0.0006230596
128.6987,-0.0006225116
128.7987,-0.0006220491
128.8987,-0.0006215651
128.9987,-0.0006209784
129.0987,-0.0006204812
129.1987,-0.0006200263
129.2987,-0.0006194491
129.3987,-0.0006189414
129.4987,-0.0006184846
129.5987,-0.0006179262
129.6987,-0.00061738
129.7987,-0.0006168809
129.8987,-0.0006163535
129.9987,-0.0006158337
130.0987,-0.0006153045
130.1987,-0.0006147987
130.2988,-0.0006142827
130.3988,-0.0006137826
130.4988,-0.0006132863
130.5988,-0.0006128437
130.6988,-0.0006122881
130.7988,-0.0006117636
130.8988,-0.0006112531
130.9988,-0.000610802
131.0988,-0.000610366
131.1988,-0.0006099037
131.2988,-0.0006094554
131.3988,-0.0006089195
131.4988,-0.0006084063
131.5988,-0.0006078789
131.6988,-0.0006072809
131.7988,-0.0006067592
131.8988,-0.0006062149
131.9989,-0.000605663
132.0989,-0.0006051818
132.1989,-0.0006046827
132.2989,-0.0006041092
132.3989,-0.0006036176
132.4989,-0.0006031081
132.5989,-0.0006025939
132.6989,-0.0006021183
132.7989,-0.0006016183
132.8989,-0.0006010711
132.9989,-0.000600589
133.0989,-0.0006000861
133.1989,-0.0005995446
133.2989,-0.0005990549
133.3989,-0.0005985793
133.4989,-0.0005980831
133.599,-0.0005976008
133.699,-0.0005971338
133.799,-0.0005966582
133.899,-0.0005961308
133.999,-0.0005957428
134.099,-0.0005952682
134.199,-0.0005947078
134.299,-0.0005942238
134.399,-0.0005937708
134.499,-0.0005932632
134.599,-0.0005927406
134.699,-0.0005922613
134.799,-0.0005917753
134.899,-0.0005912554
134.999,-0.0005908072
135.099,-0.0005903157
135.1991,-0.0005898184
135.2991,-0.0005893475
135.3991,-0.0005888531
135.4991,-0.0005883201
135.5991,-0.0005878209
135.6991,-0.0005873492
135.7991,-0.00058685
135.8991,-0.0005863293
135.9991,-0.0005858932
136.0991,-0.0005854365
136.1991,-0.0005849025
136.2991,-0.0005844468
136.3991,-0.0005839373
136.4991,-0.0005834174
136.5991,-0.0005829447
136.6991,-0.0005824343
136.7991,-0.000581952
136.8992,-0.0005814709
136.9992,-0.0005809718
137.0992,-0.0005804783
137.1992,-0.0005799924
137.2992,-0.0005795225
137.3992,-0.0005790242
137.4992,-0.0005785205
137.5992,-0.0005780599
137.6992,-0.0005775957
137.7992,-0.0005771238
137.8992,-0.0005766681
137.9992,-0.0005761633
138.0992,-0.0005756961
138.1992,-0.0005752112
138.2992,-0.0005747252
138.3992,-0.0005742619
138.4993,-0.0005737967
138.5993,-0.0005732948
138.6993,-0.0005728409
138.7993,-0.0005723766
138.8993,-0.0005719066
138.9993,-0.0005714028
139.0993,-0.0005709564
139.1993,-0.0005704827
139.2993,-0.0005699836
139.3993,-0.0005695128
139.4993,-0.0005690767
139.5993,-0.0005685815
139.6993,-0.0005681153
139.7993,-0.0005676435
139.8993,-0.0005671735
139.9993,-0.000566713
140.0993,-0.0005662713
140.1994,-0.0005658306
140.2994,-0.0005653597
140.3994,-0.0005649322
140.4994,-0.0005644594
140.5994,-0.0005639895
140.6994,-0.0005635365
140.7994,-0.0005630478
140.8994,-0.0005625694
140.9994,-0.0005620966
141.0994,-0.0005615965
141.1994,-0.0005611201
141.2994,-0.0005606529
141.3994,-0.0005601708
141.4994,-0.0005596435
141.5994,-0.0005591584
141.6994,-0.0005587224
141.7995,-0.00055831
141.8995,-0.0005578193
141.9995,-0.0005573513
142.0995,-0.0005569152
142.1995,-0.000556433
142.2995,-0.0005559707
142.3995,-0.0005555384
142.4995,-0.0005550826
142.5995,-0.0005546183
142.6995,-0.0005541691
142.7995,-0.0005536823
142.8995,-0.000553267
142.9995,-0.0005528224
143.0995,-0.0005523422
143.1995,-0.0005518949
143.2995,-0.0005514852
143.3996,-0.0005509879
143.4996,-0.0005505275
143.5996,-0.0005500868
143.6996,-0.0005495933
143.7996,-0.0005491045
143.8996,-0.0005486195
143.9996,-0.0005481731
144.0996,-0.0005477004
144.1996,-0.0005472248
144.2996,-0.000546785
144.3996,-0.0005463132
144.4996,-0.000545865
144.5996,-0.0005453856
144.6996,-0.0005449401
144.7996,-0.0005445089
144.8996,-0.0005440559
144.9996,-0.0005436142
145.0997,-0.0005431189
145.1997,-0.0005426903
145.2997,-0.0005422647
145.3997,-0.0005418023
145.4997,-0.0005413493
145.5997,-0.0005409379
145.6997,-0.0005404877
145.7997,-0.0005400112
145.8997,-0.0005396138
145.9997,-0.0005392145
146.0997,-0.0005387681
146.1997,-0.0005383132
146.2997,-0.0005378423
146.3997,-0.0005373875
146.4997,-0.0005369646
146.5997,-0.0005365522
146.6998,-0.0005360823
146.7998,-0.0005356434
146.8998,-0.0005352102
146.9998,-0.0005347704
147.0998,-0.0005343448
147.1998,-0.0005339087
147.2998,-0.0005334822
147.3998,-0.0005330555
147.4998,-0.0005326186
147.5998,-0.0005322052
147.6998,-0.0005317532
147.7998,-0.0005313491
147.8998,-0.0005308905
147.9998,-0.0005304008
148.0998,-0.0005299723
148.1998,-0.0005295004
148.2999,-0.0005290456
148.3999,-0.0005286313
148.4999,-0.0005281877
148.5999,-0.0005277253
148.6999,-0.0005272818
148.7999,-0.0005268636
148.8999,-0.0005263815
148.9999,-0.0005259445
149.0999,-0.0005255311
149.1999,-0.0005250668
149.2999,-0.0005246233
149.3999,-0.0005242287
149.4999,-0.0005238313
149.5999,-0.0005233623
149.6999,-0.0005229639
149.7999,-0.0005225505
149.8999,-0.0005220966
150,-0.0005216991
150.1,-0.0005212622
150.2,-0.0005208102
150.3,-0.0005203958
150.4,-0.0005199654
150.5,-0.0005195548
150.6,-0.0005191151
150.7,-0.0005186932
150.8,-0.0005182346
150.9,-0.0005177947
151,-0.0005174152
151.1,-0.0005169642
151.2,-0.0005164961
151.3,-0.0005161091
151.4,-0.0005156796
151.5,-0.0005152258
151.6001,-0.0005148273
151.7001,-0.0005144121
151.8001,-0.0005139497
151.9001,-0.0005135278
152.0001,-0.0005131022
152.1001,-0.000512668
152.2001,-0.000512265
152.3001,-0.0005118732
152.4001,-0.000511505
152.5001,-0.0005110453
152.6001,-0.0005106319
152.7001,-0.0005102289
152.8001,-0.0005097947
152.9001,-0.0005093578
153.0001,-0.0005089585
153.1001,-0.0005085413
153.2001,-0.0005080818
153.3002,-0.000507658
153.4002,-0.0005072756
153.5002,-0.0005068528
153.6002,-0.0005064629
153.7002,-0.0005060287
153.8002,-0.0005055786
153.9002,-0.0005052189
154.0002,-0.0005047876
154.1002,-0.0005043346
154.2002,-0.000503924
154.3002,-0.0005035219
154.4002,-0.0005030981
154.5002,-0.0005026847
154.6002,-0.0005022468
154.7002,-0.0005018748
154.8002,-0.0005014868
154.9003,-0.0005010593
155.0003,-0.0005006939
155.1003,-0.0005003021
155.2003,-0.0004998604
155.3003,-0.0004994574
155.4003,-0.0004990571
155.5003,-0.000498639
155.6003,-0.0004982049
155.7003,-0.0004977849
155.8003,-0.0004973639
155.9003,-0.0004969147
156.0003,-0.0004965135
156.1003,-0.0004961293
156.2003,-0.000495714
156.3003,-0.0004952874
156.4003,-0.0004948777
156.5004,-0.0004944568
156.6004,-0.0004940368
156.7004,-0.0004936102
156.8004,-0.0004932316
156.9004,-0.0004928097
157.0004,-0.0004923859
157.1004,-0.0004919904
157.2004,-0.0004915948
157.3004,-0.0004911692
157.4004,-0.0004907699
157.5004,-0.0004903603
157.6004,-0.0004900165
157.7004,-0.000489621
157.8004,-0.0004891935
157.9004,-0.0004887725
158.0004,-0.0004884034
158.1004,-0.0004879937
158.2005,-0.0004875661
158.3005,-0.0004871762
158.4005,-0.0004868033
158.5005,-0.0004863701
158.6005,-0.0004859859
158.7005,-0.0004856262
158.8005,-0.0004852222
158.9005,-0.0004848031
159.0005,-0.0004844123
159.1005,-0.000484013
159.2005,-0.000483609
159.3005,-0.0004832398
159.4005,-0.0004828867
159.5005,-0.0004824488
159.6005,-0.0004820787
159.7005,-0.0004816653
159.8006,-0.0004812574
159.9006,-0.0004808431
160.0006,-0.0004803835
160.1006,-0.0004800068
160.2006,-0.0004796038
160.3006,-0.0004791922
160.4006,-0.0004787939
160.5006,-0.0004784087
160.6006,-0.000478033
160.7006,-0.0004776177
160.8006,-0.0004772212
160.9006,-0.0004768756
161.0006,-0.0004764631
161.1006,-0.0004760497
161.2006,-0.0004756598
161.3006,-0.0004752652
161.4007,-0.0004748593
161.5007,-0.000474477
161.6007,-0.0004741098
161.7007,-0.0004737321
161.8007,-0.0004733083
161.9007,-0.0004729712
162.0007,-0.0004725512
162.1007,-0.0004721208
162.2007,-0.0004717658
162.3007,-0.0004714098
162.4007,-0.0004709794
162.5007,-0.0004705858
162.6007,-0.0004702185
162.7007,-0.0004698277
162.8007,-0.0004694095
162.9007,-0.0004690442
163.0007,-0.0004686533
163.1008,-0.0004682522
163.2008,-0.0004678839
163.3008,-0.0004674941
163.4008,-0.0004670985
163.5008,-0.0004667426
163.6008,-0.0004663536
163.7008,-0.0004659713
163.8008,-0.0004655955
163.9008,-0.0004652141
164.0008,-0.0004648111
164.1008,-0.0004644193
164.2008,-0.0004640417
164.3008,-0.0004636725
164.4008,-0.0004633241
164.5008,-0.0004629549
164.6008,-0.0004625688
164.7009,-0.0004622223
164.8009,-0.000461871
164.9009,-0.0004614915
165.0009,-0.0004611072
165.1009,-0.0004607824
165.2009,-0.0004603934
165.3009,-0.0004599903
165.4009,-0.0004596221
165.5009,-0.0004592652
165.6009,-0.0004588358
165.7009,-0.0004584732
165.8009,-0.000458121
165.9009,-0.0004577405
166.0009,-0.0004573639
166.1009,-0.0004570013
166.2009,-0.0004565785
166.3009,-0.0004562103
166.401,-0.0004558646
166.501,-0.000455487
166.601,-0.0004550868
166.701,-0.0004547185
166.801,-0.0004543447
166.901,-0.0004539812
167.001,-0.0004536092
167.101,-0.0004532287
167.201,-0.0004528925
167.301,-0.000452529
167.401,-0.0004521589
167.501,-0.000451818
167.601,-0.000451462
167.701,-0.0004510656
167.801,-0.0004506757
167.901,-0.0004503207
168.0011,-0.0004499637
168.1011,-0.0004495626
168.2011,-0.0004491831
168.3011,-0.000448844
168.4011,-0.0004484344
168.5011,-0.0004480765
168.6011,-0.0004477356
168.7011,-0.0004474079
168.8011,-0.0004469879
168.9011,-0.0004466573
169.0011,-0.0004462806
169.1011,-0.0004458879
169.2011,-0.0004455423
169.3011,-0.0004451769
169.4011,-0.0004447607
169.5011,-0.0004443925
169.6012,-0.0004440515
169.7012,-0.0004436758
169.8012,-0.0004432718
169.9012,-0.0004429111
170.0012,-0.0004425712
170.1012,-0.0004422067
170.2012,-0.0004419016
170.3012,-0.0004415644
170.4012,-0.0004412499
170.5012,-0.0004409024
170.6012,-0.0004405323
170.7012,-0.0004401481
170.8012,-0.0004398015
170.9012,-0.0004394399
171.0012,-0.0004390754
171.1012,-0.0004387317
171.2012,-0.0004383626
171.3013,-0.0004380085
171.4013,-0.0004376562
171.5013,-0.0004373313
171.6013,-0.0004369791
171.7013,-0.0004366157
171.8013,-0.0004362813
171.9013,-0.0004358839
172.0013,-0.0004355063
172.1013,-0.0004351446
172.2013,-0.0004347482
172.3013,-0.0004344026
172.4013,-0.000434072
172.5013,-0.0004336982
172.6013,-0.0004333243
172.7013,-0.0004329777
172.8013,-0.000432618
172.9014,-0.0004322272
173.0014,-0.0004318363
173.1014,-0.0004315369
173.2014,-0.0004311922
173.3014,-0.0004308108
173.4014,-0.0004304285
173.5014,-0.0004300857
173.6014,-0.0004297212
173.7014,-0.0004293719
173.8014,-0.000428997
173.9014,-0.0004286816
174.0014,-0.0004283341
174.1014,-0.0004279555
174.2014,-0.0004276118
174.3014,-0.0004272709
174.4014,-0.0004269403
174.5014,-0.0004265824
174.6015,-0.000426218
174.7015,-0.0004258743
174.8015,-0.0004255277
174.9015,-0.0004251557
175.0015,-0.0004248148
175.1015,-0.0004244616
175.2015,-0.0004240887
175.3015,-0.0004237874
175.4015,-0.0004234352
175.5015,-0.000423099
175.6015,-0.0004227967
175.7015,-0.0004224284
175.8015,-0.0004220715
175.9015,-0.000421757
176.0015,-0.0004214123
176.1015,-0.0004210347
176.2016,-0.0004206834
176.3016,-0.0004203896
176.4016,-0.0004200421
176.5016,-0.000419672
176.6016,-0.0004193481
176.7016,-0.0004190448
176.8016,-0.0004186653
176.9016,-0.0004182905
177.0016,-0.000418008
177.1016,-0.000417717
177.2016,-0.0004173412
177.3016,-0.0004169947
177.4016,-0.0004166792
177.5016,-0.0004163468
177.6016,-0.0004160125
177.7016,-0.0004156452
177.8017,-0.0004153127
177.9017,-0.0004150048
178.0017,-0.0004146046
178.1017,-0.0004143013
178.2017,-0.0004139783
178.3017,-0.0004136204
178.4017,-0.0004132871
178.5017,-0.0004129302
178.6017,-0.0004126081
178.7017,-0.0004122521
178.8017,-0.000411898
178.9017,-0.0004116004
179.0017,-0.0004112416
179.1017,-0.0004108885
179.2017,-0.0004105589
179.3017,-0.0004102415
179.4017,-0.000409861
179.5018,-0.0004095597
179.6018,-0.0004092649
179.7018,-0.0004088939
179.8018,-0.00040852
179.9018,-0.0004082205
180.0018,-0.000407873
180.1018,-0.0004075218
180.2018,-0.0004071997
180.3018,-0.0004068852
180.4018,-0.0004065556
180.5018,-0.000406209
180.6018,-0.0004058398
180.7018,-0.0004055084
180.8018,-0.0004052325
180.9018,-0.0004048953
181.0018,-0.0004045421
181.1019,-0.000404237
181.2019,-0.0004039413
181.3019,-0.0004035825
181.4019,-0.0004031983
181.5019,-0.0004028922
181.6019,-0.0004025137
181.7019,-0.0004021775
181.8019,-0.0004018507
181.9019,-0.0004015211
182.0019,-0.0004011707
182.1019,-0.0004008487
182.2019,-0.0004005445
182.3019,-0.0004001932
182.4019,-0.0003998693
182.5019,-0.0003995406
182.6019,-0.0003991969
182.702,-0.0003989031
182.802,-0.0003985895
182.902,-0.0003982146
183.002,-0.0003978964
183.102,-0.0003976223
183.202,-0.0003972804
183.302,-0.0003969283
183.402,-0.0003966448
183.502,-0.0003963378
183.602,-0.0003960308
183.702,-0.0003956908
183.802,-0.0003953706
183.902,-0.0003950448
184.002,-0.0003947613
184.102,-0.0003944073
184.202,-0.0003940852
184.302,-0.0003937791
184.4021,-0.0003934212
184.5021,-0.0003931275
184.6021,-0.0003928393
184.7021,-0.0003925078
184.8021,-0.0003921302
184.9021,-0.0003918344
185.0021,-0.0003915152
185.1021,-0.0003911715
185.2021,-0.0003908437
185.3021,-0.0003905706
185.4021,-0.0003902533
185.5021,-0.000389885
185.6021,-0.0003896007
185.7021,-0.0003893162
185.8021,-0.000388948
185.9021,-0.0003886514
186.0022,-0.0003883199
186.1022,-0.0003879705
186.2022,-0.0003876682
186.3022,-0.0003873791
186.4022,-0.0003870184
186.5022,-0.0003866982
186.6022,-0.0003863997
186.7022,-0.000386056
186.8022,-0.0003857631
186.9022,-0.000385489
187.0022,-0.00038515
187.1022,-0.0003848487
187.2022,-0.0003845398
187.3022,-0.0003842318
187.4022,-0.0003839286
187.5022,-0.0003836433
187.6022,-0.0003833146
187.7023,-0.0003829953
187.8023,-0.0003827439
187.9023,-0.0003823964
188.0023,-0.0003820668
188.1023,-0.0003817683
188.2023,-0.0003814584
188.3023,-0.000381078
188.4023,-0.0003807738
188.5023,-0.0003804856
188.6023,-0.000380172
188.7023,-0.0003798688
188.8023,-0.0003795637
188.9023,-0.0003792567
189.0023,-0.0003789374
189.1023,-0.0003786445
189.2023,-0.0003783507
189.3024,-0.0003780211
189.4024,-0.0003777094
189.5024,-0.0003774344
189.6024,-0.0003770982
189.7024,-0.0003767799
189.8024,-0.000376472
189.9024,-0.0003761433
190.0024,-0.0003758457
190.1024,-0.0003755547
190.2024,-0.0003752289
190.3024,-0.0003749266
190.4024,-0.0003746469
190.5024,-0.000374338
190.6024,-0.0003739867
190.7024,-0.0003737174
190.8024,-0.0003734038
190.9025,-0.0003731156
191.0025,-0.0003728322
191.1025,-0.0003724913
191.2025,-0.0003722144
191.3025,-0.0003719281
191.4025,-0.000371623
191.5025,-0.0003713207
191.6025,-0.000371074
191.7025,-0.0003707575
191.8025,-0.0003704185
191.9025,-0.0003701482
192.0025,-0.000369862
192.1025,-0.0003695276
192.2025,-0.0003692498
192.3025,-0.0003689805
192.4025,-0.0003686754
192.5025,-0.0003683363
192.6026,-0.0003680539
192.7026,-0.0003677732
192.8026,-0.0003674295
192.9026,-0.0003671159
193.0026,-0.0003668419
193.1026,-0.0003665075
193.2026,-0.0003662043
193.3026,-0.0003658878
193.4026,-0.0003655931
193.5026,-0.0003653219
193.6026,-0.0003650591
193.7026,-0.000364769
193.8026,-0.0003644508
193.9026,-0.0003642059
194.0026,-0.0003638688
194.1026,-0.0003635533
194.2027,-0.0003633028
194.3027,-0.0003629742
194.4027,-0.0003626652
194.5027,-0.0003623837
194.6027,-0.0003620719
194.7027,-0.0003617753
194.8027,-0.0003614476
194.9027,-0.0003611641
195.0027,-0.0003608826
195.1027,-0.0003605963
195.2027,-0.0003602958
195.3027,-0.0003600105
195.4027,-0.0003597016
195.5027,-0.0003593928
195.6027,-0.0003590876
195.7027,-0.0003588145
195.8027,-0.0003584962
195.9028,-0.0003582363
196.0028,-0.000357967
196.1028,-0.0003576713
196.2028,-0.0003573755
196.3028,-0.0003570751
196.4028,-0.0003568312
196.5028,-0.0003564922
196.6028,-0.000356188
196.7028,-0.0003559413
196.8028,-0.0003556409
196.9028,-0.0003553442
197.0028,-0.0003550937
197.1028,-0.0003548046
197.2028,-0.0003545033
197.3028,-0.0003542339
197.4028,-0.000353975
197.5029,-0.0003536783
197.6029,-0.0003533694
197.7029,-0.0003531303
197.8029,-0.000352842
197.9029,-0.0003525313
198.0029,-0.000352277
198.1029,-0.0003519738
198.2029,-0.0003516649
198.3029,-0.0003513776
198.4029,-0.0003511045
198.5029,-0.0003507787
198.6029,-0.0003505084
198.7029,-0.0003502636
198.8029,-0.0003499538
198.9029,-0.0003496684
199.0029,-0.0003494358
199.103,-0.0003490911
199.203,-0.0003488096
199.303,-0.0003485515
199.403,-0.0003482407
199.503,-0.0003479366
199.603,-0.0003477171
199.703,-0.0003474563
199.803,-0.0003471549
199.903,-0.0003468837
200.003,-0.000346588
200.103,-0.0003463102
200.203,-0.0003460437
200.303,-0.0003457659
200.403,-0.000345441
200.503,-0.0003451858
200.603,-0.0003449099
200.703,-0.0003446075
200.8031,-0.0003443166
200.9031,-0.0003440698
201.0031,-0.0003438061
201.1031,-0.000343518
201.2031,-0.0003433023
201.3031,-0.0003430123
201.4031,-0.0003426902
201.5031,-0.0003424689
201.6031,-0.0003421694
201.7031,-0.0003418539
201.8031,-0.0003415855
201.9031,-0.0003413482
202.0031,-0.0003410271
202.1031,-0.0003407361
202.2031,-0.0003404639
202.3031,-0.0003401795
202.4032,-0.0003398801
202.5032,-0.0003396277
202.6032,-0.0003393433
202.7032,-0.0003390514
202.8032,-0.0003387933
202.9032,-0.0003385108
203.0032,-0.0003382415
203.1032,-0.0003379476
203.2032,-0.0003376877
203.3032,-0.0003373807
203.4032,-0.0003371311
203.5032,-0.0003368477
203.6032,-0.0003365604
203.7032,-0.0003363203
203.8032,-0.0003360698
203.9032,-0.0003357609
204.0033,-0.0003355132
204.1033,-0.0003352816
204.2033,-0.0003349586
204.3033,-0.0003347118
204.4033,-0.0003344623
204.5033,-0.0003341882
204.6033,-0.0003339095
204.7033,-0.000333659
204.8033,-0.0003333783
204.9033,-0.0003330967
205.0033,-0.0003328048
205.1033,-0.0003325496
205.2033,-0.0003322586
205.3033,-0.0003319836
205.4033,-0.0003316898
205.5033,-0.0003314402
205.6033,-0.0003311662
205.7034,-0.0003309195
205.8034,-0.0003306238
205.9034,-0.0003303328
206.0034,-0.0003301134
206.1034,-0.0003297837
206.2034,-0.0003295153
206.3034,-0.000329263
206.4034,-0.0003289786
206.5034,-0.000328697
206.6034,-0.0003284361
206.7034,-0.000328181
206.8034,-0.0003279012
206.9034,-0.0003276008
207.0034,-0.0003273551
207.1034,-0.0003270857
207.2034,-0.0003268314
207.3035,-0.0003265791
207.4035,-0.0003263182
207.5035,-0.0003260422
207.6035,-0.0003258162
207.7035,-0.0003255074
207.8035,-0.0003252286
207.9035,-0.0003250092
208.0035,-0.0003247408
208.1035,-0.0003244253
208.2035,-0.0003241824
208.3035,-0.0003239139
208.4035,-0.0003236286
208.5035,-0.00032338
208.6035,-0.0003231285
208.7035,-0.0003228555
208.8035,-0.0003225984
208.9035,-0.0003223855
209.0036,-0.0003220719
209.1036,-0.0003218073
209.2036,-0.0003215653
209.3036,-0.0003212724
209.4036,-0.000321037
209.5036,-0.0003207865
209.6036,-0.0003205246
209.7036,-0.0003202685
209.8036,-0.0003199737
209.9036,-0.0003197863
210.0036,-0.0003194953
210.1036,-0.0003191987
210.2036,-0.0003189793
210.3036,-0.0003187542
210.4036,-0.0003184557
210.5036,-0.0003182202
210.6037,-0.0003179791
210.7037,-0.0003177117
210.8037,-0.0003174575
210.9037,-0.0003171985
211.0037,-0.00031693
211.1037,-0.0003166909
211.2037,-0.0003164432
211.3037,-0.000316139
211.4037,-0.0003158866
211.5037,-0.0003156738
211.6037,-0.0003154007
211.7037,-0.0003151398
211.8037,-0.0003148846
211.9037,-0.0003146539
212.0037,-0.000314377
212.1037,-0.0003141002
212.2038,-0.0003138657
212.3038,-0.0003135747
212.4038,-0.0003133383
212.5038,-0.0003131001
212.6038,-0.0003128288
212.7038,-0.0003125708
212.8038,-0.0003123429
212.9038,-0.0003120698
213.0038,-0.0003118306
213.1038,-0.0003115848
213.2038,-0.0003113192
213.3038,-0.0003110546
213.4038,-0.0003108305
213.5038,-0.0003105649
213.6038,-0.0003102974
213.7038,-0.0003100526
213.8038,-0.0003097748
213.9039,-0.0003094998
214.0039,-0.0003092861
214.1039,-0.0003090355
214.2039,-0.0003087568
214.3039,-0.0003085157
214.4039,-0.0003082878
214.5039,-0.0003080251
214.6039,-0.0003077378
214.7039,-0.0003075005
214.8039,-0.0003072557
214.9039,-0.0003070023
215.0039,-0.0003067735
215.1039,-0.0003065155
215.2039,-0.0003062584
215.3039,-0.0003060568
215.4039,-0.0003057932
215.504,-0.0003055229
215.604,-0.0003053101
215.704,-0.0003050614
215.804,-0.0003047874
215.904,-0.0003045397
216.004,-0.0003043146
216.104,-0.0003040698
216.204,-0.0003038494
216.304,-0.0003036196
216.404,-0.0003033503
216.504,-0.0003031082
216.604,-0.0003029011
216.704,-0.0003026346
216.804,-0.0003023662
216.904,-0.0003022014
217.004,-0.0003019386
217.104,-0.0003016665
217.2041,-0.0003014687
217.3041,-0.0003012333
217.4041,-0.000300964
217.5041,-0.0003007087
217.6041,-0.0003004912
217.7041,-0.0003002238
217.8041,-0.0002999573
217.9041,-0.000299751
218.0041,-0.0002994995
218.1041,-0.0002992151
218.2041,-0.0002990127
218.3041,-0.000298766
218.4041,-0.0002984957
218.5041,-0.0002982612
218.6041,-0.0002980135
218.7041,-0.0002977508
218.8042,-0.0002974937
218.9042,-0.0002972733
219.0042,-0.000297019
219.1042,-0.0002967827
219.2042,-0.0002965397
219.3042,-0.0002963466
219.4042,-0.0002961046
219.5042,-0.0002958918
219.6042,-0.0002956422
219.7042,-0.0002953851
219.8042,-0.0002952005
219.9042,-0.0002949246
220.0042,-0.0002946647
220.1042,-0.0002944406
220.2042,-0.0002942023
220.3042,-0.0002939518
220.4043,-0.0002936881
220.5043,-0.0002934433
220.6043,-0.0002932145
220.7043,-0.0002929941
220.8043,-0.0002927097
220.9043,-0.000292461
221.0043,-0.000292253
221.1043,-0.0002920269
221.2043,-0.0002917764
221.3043,-0.0002915485
221.4043,-0.0002913291
221.5043,-0.0002910616
221.6043,-0.0002908253
221.7043,-0.0002906115
221.8043,-0.0002903798
221.9043,-0.0002900982
222.0043,-0.0002899099
222.1044,-0.0002896528
222.2044,-0.0002893976
222.3044,-0.0002891942
222.4044,-0.0002889587
222.5044,-0.0002886866
222.6044,-0.000288486
222.7044,-0.0002882883
222.8044,-0.0002880104
222.9044,-0.0002877703
223.0044,-0.0002875631
223.1044,-0.000287322
223.2044,-0.00028708
223.3044,-0.0002868935
223.4044,-0.0002866478
223.5044,-0.0002863907
223.6044,-0.0002861948
223.7045,-0.0002859603
223.8045,-0.0002856947
223.9045,-0.0002854941
224.0045,-0.0002852597
224.1045,-0.0002850223
224.2045,-0.0002848123
224.3045,-0.0002846117
224.4045,-0.0002843772
224.5045,-0.0002841616
224.6045,-0.0002839582
224.7045,-0.0002837557
224.8045,-0.0002835052
224.9045,-0.000283282
225.0045,-0.000283056
225.1045,-0.0002828224
225.2045,-0.0002825946
225.3046,-0.0002823864
225.4046,-0.0002821604
225.5046,-0.0002819231
225.6046,-0.0002816895
225.7046,-0.0002814484
225.8046,-0.0002812469
225.9046,-0.0002809993
226.0046,-0.0002807713
226.1046,-0.0002805755
226.2046,-0.00028034
226.3046,-0.0002801168
226.4046,-0.0002798927
226.5046,-0.0002796874
226.6046,-0.0002794369
226.7046,-0.0002792232
226.8046,-0.0002790178
226.9046,-0.0002787683
227.0047,-0.000278531
227.1047,-0.0002783209
227.2047,-0.0002781401
227.3047,-0.0002778944
227.4047,-0.0002776608
227.5047,-0.0002774583
227.6047,-0.0002772445
227.7047,-0.0002770515
227.8047,-0.0002768236
227.9047,-0.0002765618
228.0047,-0.0002763499
228.1047,-0.0002761531
228.2047,-0.0002759045
228.3047,-0.0002756615
228.4047,-0.0002754515
228.5047,-0.0002752321
228.6048,-0.0002750051
228.7048,-0.0002747895
228.8048,-0.0002745456
228.9048,-0.0002743412
229.0048,-0.0002741331
229.1048,-0.0002738929
229.2048,-0.0002736651
229.3048,-0.0002734362
229.4048,-0.0002731979
229.5048,-0.000272987
229.6048,-0.0002728109
229.7048,-0.0002725943
229.8048,-0.0002723391
229.9048,-0.0002721686
230.0048,-0.0002719304
230.1048,-0.0002716771
230.2048,-0.0002714972
230.3049,-0.0002712928
230.4049,-0.0002710113
230.5049,-0.0002708012
230.6049,-0.0002705818
230.7049,-0.0002703643
230.8049,-0.0002701241
230.9049,-0.0002699282
231.0049,-0.000269673
231.1049,-0.0002694593
231.2049,-0.0002692559
231.3049,-0.0002690637
231.4049,-0.0002688424
231.5049,-0.0002686371
231.6049,-0.0002684253
231.7049,-0.000268187
231.8049,-0.0002680269
231.905,-0.0002677934
232.005,-0.0002675664
232.105,-0.0002673846
232.205,-0.0002671661
232.305,-0.0002669336
232.405,-0.0002667264
232.505,-0.0002665493
232.605,-0.0002663271
232.705,-0.0002660691
232.805,-0.0002658901
232.905,-0.0002656801
233.005,-0.0002654174
233.105,-0.000265245
233.205,-0.0002650171
233.305,-0.000264794
233.405,-0.000264566
233.5051,-0.0002643692
233.6051,-0.0002641818
233.7051,-0.0002639238
233.8051,-0.0002637288
233.9051,-0.0002635499
234.0051,-0.0002633116
234.1051,-0.0002630988
234.2051,-0.0002629189
234.3051,-0.000262691
234.4051,-0.0002624556
234.5051,-0.0002622428
234.6051,-0.0002620205
234.7051,-0.0002618049
234.8051,-0.0002616053
234.9051,-0.0002613745
235.0051,-0.0002611645
235.1051,-0.0002609874
235.2052,-0.0002607821
235.3052,-0.0002605505
235.4052,-0.0002603725
235.5052,-0.0002601587
235.6052,-0.000259945
235.7052,-0.0002597623
235.8052,-0.0002595447
235.9052,-0.00025933
236.0052,-0.0002591473
236.1052,-0.000258894
236.2052,-0.0002586821
236.3052,-0.0002585305
236.4052,-0.0002583271
236.5052,-0.0002580784
236.6052,-0.0002579033
236.7052,-0.0002577093
236.8053,-0.0002574823
236.9053,-0.0002572667
237.0053,-0.000257083
237.1053,-0.0002568646
237.2053,-0.0002566715
237.3053,-0.0002564917
237.4053,-0.0002562477
237.5053,-0.0002560236
237.6053,-0.0002558588
237.7053,-0.000255662
237.8053,-0.0002554246
237.9053,-0.0002552693
238.0053,-0.000255064
238.1053,-0.0002548351
238.2053,-0.0002546609
238.3053,-0.0002544292
238.4053,-0.0002542173
238.5054,-0.0002540017
238.6054,-0.0002537983
238.7054,-0.0002535817
238.8054,-0.0002533905
238.9054,-0.0002532078
239.0054,-0.0002530063
239.1054,-0.0002528066
239.2054,-0.0002526399
239.3054,-0.0002523979
239.4054,-0.0002521954
239.5054,-0.0002520099
239.6054,-0.0002517952
239.7054,-0.0002515617
239.8054,-0.0002513874
239.9054,-0.0002511727
240.0054,-0.0002509467
240.1055,-0.0002507461
240.2055,-0.0002505747
240.3055,-0.0002503647
240.4055,-0.0002501472
240.5055,-0.0002499946
240.6055,-0.0002498458
240.7055,-0.0002495981
240.8055,-0.0002493806
240.9055,-0.0002492412
241.0055,-0.0002489926
241.1055,-0.0002487685
241.2055,-0.0002485858
241.3055,-0.0002483984
241.4055,-0.0002481451
241.5055,-0.0002479821
241.6055,-0.0002477853
241.7056,-0.0002475697
241.8056,-0.0002474039
241.9056,-0.0002471986
242.0056,-0.0002469849
242.1056,-0.0002468248
242.2056,-0.0002465827
242.3056,-0.0002463897
242.4056,-0.0002461947
242.5056,-0.0002459744
242.6056,-0.0002457587
242.7056,-0.0002455779
242.8056,-0.0002453641
242.9056,-0.0002451513
243.0056,-0.0002449545
243.1056,-0.000244785
243.2056,-0.0002445806
243.3056,-0.0002443621
243.4057,-0.0002442133
243.5057,-0.0002440222
243.6057,-0.0002437867
243.7057,-0.0002436031
243.8057,-0.0002434279
243.9057,-0.0002432123
244.0057,-0.0002430051
244.1057,-0.0002428375
244.2057,-0.0002426425
244.3057,-0.0002424278
244.4057,-0.0002422451
244.5057,-0.0002420671
244.6057,-0.000241875
244.7057,-0.0002416951
244.8057,-0.0002415011
244.9057,-0.0002412902
245.0058,-0.0002411132
245.1058,-0.0002409286
245.2058,-0.0002407139
245.3058,-0.0002405142
245.4058,-0.00024034
245.5058,-0.0002401347
245.6058,-0.0002399012
245.7058,-0.000239758
245.8058,-0.0002395913
245.9058,-0.0002393653
246.0058,-0.0002391854
246.1058,-0.0002390206
246.2058,-0.000238804
246.3058,-0.0002386242
246.4058,-0.000238433
246.5058,-0.0002382606
246.6059,-0.000238061
246.7059,-0.0002378736
246.8059,-0.0002376994
246.9059,-0.0002375157
247.0059,-0.0002372916
247.1059,-0.0002371334
247.2059,-0.0002369752
247.3059,-0.0002367671
247.4059,-0.0002365665
247.5059,-0.0002363951
247.6059,-0.0002362114
247.7059,-0.0002360165
247.8059,-0.0002357933
247.9059,-0.000235636
248.0059,-0.000235443
248.1059,-0.0002352405
248.2059,-0.0002350531
248.306,-0.0002349015
248.406,-0.0002346962
248.506,-0.0002344966
248.606,-0.0002343101
248.706,-0.0002341283
248.806,-0.0002339466
248.906,-0.0002337375
249.006,-0.0002335567
249.106,-0.0002333957
249.206,-0.0002332149
249.306,-0.0002330048
249.406,-0.0002328335
249.506,-0.0002326743
249.606,-0.0002324615
249.706,-0.0002322486
249.806,-0.0002320754
249.9061,-0.0002318992
250.0061,-0.00023171
250.1061,-0.0002315442
250.2061,-0.0002313615
250.3061,-0.0002311788
250.4061,-0.0002310056
250.5061,-0.0002308116
250.6061,-0.0002306307
250.7061,-0.0002304659
250.8061,-0.0002302616
250.9061,-0.0002300836
251.0061,-0.0002299047
251.1061,-0.0002297182
251.2061,-0.0002295374
251.3061,-0.0002293613
251.4061,-0.000229188
251.5061,-0.0002289884
251.6062,-0.0002288085
251.7062,-0.0002286597
251.8062,-0.0002284497
251.9062,-0.0002282595
252.0062,-0.0002281154
252.1062,-0.0002279289
252.2062,-0.0002276878
252.3062,-0.0002275381
252.4062,-0.0002273827
252.5062,-0.0002271718
252.6062,-0.0002269674
252.7062,-0.0002268403
252.8062,-0.0002266651
252.9062,-0.0002264683
253.0062,-0.000226279
253.1062,-0.0002261095
253.2063,-0.0002258938
253.3063,-0.0002257187
253.4063,-0.000225568
253.5063,-0.0002253815
253.6063,-0.0002251988
253.7063,-0.0002250067
253.8063,-0.0002248184
253.9063,-0.0002246451
254.0063,-0.0002244624
254.1063,-0.000224275
254.2063,-0.0002240857
254.3063,-0.0002239068
254.4063,-0.000223693
254.5063,-0.0002235499
254.6063,-0.0002233841
254.7063,-0.000223192
254.8064,-0.0002229952
254.9064,-0.0002228859
255.0064,-0.0002227296
255.1064,-0.000222497
255.2064,-0.0002223463
255.3064,-0.0002221778
255.4064,-0.0002220073
255.5064,-0.0002218416
255.6064,-0.0002216664
255.7064,-0.0002214846
255.8064,-0.0002213067
255.9064,-0.000221124
256.0064,-0.0002209648
256.1064,-0.0002207539
256.2064,-0.0002205778
256.3064,-0.0002204233
256.4064,-0.0002202171
256.5064,-0.0002200815
256.6064,-0.0002198912
256.7065,-0.0002196925
256.8065,-0.0002195296
256.9065,-0.0002193714
257.0065,-0.000219152
257.1065,-0.0002189778
257.2065,-0.0002188101
257.3065,-0.0002186416
257.4065,-0.000218441
257.5065,-0.0002182894
257.6065,-0.0002181208
257.7065,-0.0002179324
257.8065,-0.000217794
257.9065,-0.0002175991
258.0065,-0.0002174277
258.1065,-0.0002172732
258.2065,-0.0002171141
258.3065,-0.0002169333
258.4066,-0.0002167383
258.5066,-0.0002165688
258.6066,-0.0002164021
258.7066,-0.0002162533
258.8066,-0.0002160857
258.9066,-0.0002158748
259.0066,-0.0002157015
259.1066,-0.0002155546
259.2066,-0.0002153794
259.3066,-0.0002152052
259.4066,-0.0002150573
259.5066,-0.0002148803
259.6066,-0.0002147183
259.7066,-0.0002145639
259.8066,-0.0002143934
259.9066,-0.0002142098
260.0067,-0.0002140374
260.1067,-0.0002138632
260.2067,-0.0002137106
260.3067,-0.0002135562
260.4067,-0.0002133528
260.5067,-0.0002132068
260.6067,-0.0002130533
260.7067,-0.0002128556
260.8067,-0.0002126691
260.9067,-0.0002125589
261.0067,-0.0002123809
261.1067,-0.0002121851
261.2067,-0.000212056
261.3067,-0.0002118809
261.4067,-0.0002116822
261.5067,-0.0002115315
261.6068,-0.0002114062
261.7068,-0.0002111652
261.8068,-0.0002110634
261.9068,-0.0002109363
262.0068,-0.0002107273
262.1068,-0.0002105427
262.2068,-0.0002104089
262.3068,-0.0002102347
262.4068,-0.000210037
262.5068,-0.000209874
262.6068,-0.000209697
262.7068,-0.0002095378
262.8068,-0.0002093702
262.9068,-0.0002091951
263.0068,-0.000209051
263.1068,-0.0002088721
263.2068,-0.0002086893
263.3069,-0.0002085255
263.4069,-0.0002083833
263.5069,-0.0002082044
263.6069,-0.0002080151
263.7069,-0.0002078719
263.8069,-0.0002077118
263.9069,-0.0002075225
264.0069,-0.0002073718
264.1069,-0.0002072061
264.2069,-0.0002070432
264.3069,-0.0002068953
264.4069,-0.0002067522
264.5069,-0.0002065299
264.6069,-0.0002063962
264.7069,-0.00020627
264.8069,-0.0002060676
264.907,-0.0002058896
265.007,-0.00020577
265.107,-0.000205625
265.207,-0.0002054451
265.307,-0.0002052803
265.407,-0.0002051428
265.507,-0.0002049657
265.607,-0.0002048103
265.707,-0.0002046465
265.807,-0.0002044647
265.907,-0.0002043028
266.007,-0.0002041511
266.107,-0.0002040052
266.207,-0.0002038423
266.307,-0.0002036765
266.407,-0.0002035004
266.507,-0.0002033252
266.6071,-0.0002031783
266.7071,-0.0002030126
266.8071,-0.0002028205
266.9071,-0.0002027093
267.0071,-0.0002025662
267.1071,-0.0002023769
267.2071,-0.0002022583
267.3071,-0.0002021123
267.4071,-0.000201906
267.5071,-0.0002017488
267.6071,-0.0002016311
267.7071,-0.0002014371
267.8071,-0.0002012741
267.9071,-0.0002011687
268.0071,-0.0002009747
268.1071,-0.0002008325
268.2072,-0.0002006649
268.3072,-0.000200517
268.4072,-0.000200371
268.5072,-0.0002001978
268.6072,-0.0002000348
268.7072,-0.0001998681
268.8072,-0.0001997278
268.9072,-0.0001995461
269.0072,-0.0001993945
269.1072,-0.000199241
269.2072,-0.0001990715
269.3072,-0.0001989161
269.4072,-0.0001988021
269.5072,-0.0001986665
269.6072,-0.0001984734
269.7072,-0.0001983407
269.8073,-0.0001981881
269.9073,-0.0001980233
270.0073,-0.0001978462
270.1073,-0.0001977238
270.2073,-0.0001975929
270.3073,-0.000197398
270.4073,-0.0001972812
270.5073,-0.0001971164
270.6073,-0.0001969318
270.7073,-0.0001968198
270.8073,-0.0001966512
270.9073,-0.00019646
271.0073,-0.0001963329
271.1073,-0.0001961973
271.2073,-0.000195992
271.3073,-0.0001958554
271.4073,-0.0001957311
271.5074,-0.0001955465
271.6074,-0.0001953893
271.7074,-0.0001952461
271.8074,-0.0001951115
271.9074,-0.0001949353
272.0074,-0.0001947922
272.1074,-0.0001946378
272.2074,-0.0001944692
272.3074,-0.0001943873
272.4074,-0.00019423
272.5074,-0.0001940407
272.6074,-0.00019394
272.7074,-0.000193778
272.8074,-0.0001935934
272.9074,-0.000193439
273.0074,-0.0001933128
273.1075,-0.0001931338
273.2075,-0.0001929813
273.3075,-0.0001928438
273.4075,-0.0001927016
273.5075,-0.0001925104
273.6075,-0.0001923814
273.7075,-0.0001922043
273.8075,-0.0001920273
273.9075,-0.0001919124
274.0075,-0.0001917429
274.1075,-0.000191563
274.2075,-0.0001914425
274.3075,-0.000191305
274.4075,-0.0001910987
274.5075,-0.0001909895
274.6075,-0.0001908577
274.7076,-0.0001906995
274.8076,-0.0001905459
274.9076,-0.0001904603
275.0076,-0.0001902653
275.1076,-0.0001901156
275.2076,-0.0001900045
275.3076,-0.0001898142
275.4076,-0.0001896183
275.5076,-0.000189494
275.6076,-0.000189366
275.7076,-0.000189156
275.8076,-0.0001890316
275.9076,-0.0001889243
276.0076,-0.000188735
276.1076,-0.0001885824
276.2076,-0.0001884675
276.3076,-0.0001883498
276.4077,-0.0001881822
276.5077,-0.0001880636
276.6077,-0.0001879326
276.7077,-0.0001877707
276.8077,-0.0001876369
276.9077,-0.0001874881
277.0077,-0.0001873394
277.1077,-0.0001871849
277.2077,-0.0001870455
277.3077,-0.0001869306
277.4077,-0.0001867527
277.5077,-0.0001866528
277.6077,-0.0001865144
277.7077,-0.0001863486
277.8077,-0.0001862225
277.9077,-0.0001860812
278.0078,-0.0001859221
278.1078,-0.0001857808
278.2078,-0.0001856405
278.3078,-0.0001854842
278.4078,-0.000185389
278.5078,-0.000185212
278.6078,-0.0001850707
278.7078,-0.0001849219
278.8078,-0.0001848089
278.9078,-0.00018463
279.0078,-0.0001844586
279.1078,-0.000184356
279.2078,-0.0001842072
279.3078,-0.0001840348
279.4078,-0.0001839143
279.5078,-0.0001837683
279.6078,-0.0001836271
279.7079,-0.0001834952
279.8079,-0.0001833596
279.9079,-0.0001831873
280.0079,-0.0001830667
280.1079,-0.0001829095
280.2079,-0.0001827522
280.3079,-0.0001826401
280.4079,-0.0001824951
280.5079,-0.0001823331
280.6079,-0.0001821966
280.7079,-0.0001820694
280.8079,-0.0001819263
280.9079,-0.0001817709
281.0079,-0.0001816541
281.1079,-0.0001815279
281.2079,-0.0001813688
281.308,-0.0001812237
281.408,-0.0001810966
281.508,-0.0001809243
281.608,-0.0001808094
281.708,-0.0001806634
281.808,-0.0001805014
281.908,-0.0001803912
282.008,-0.0001802462
282.108,-0.0001800786
282.208,-0.000179927
282.308,-0.0001798215
282.408,-0.000179684
282.508,-0.0001795399
282.608,-0.0001794373
282.708,-0.0001793064
282.808,-0.0001791538
282.9081,-0.0001790267
283.0081,-0.0001788826
283.1081,-0.0001787404
283.2081,-0.0001786161
283.3081,-0.0001784616
283.4081,-0.0001783279
283.5081,-0.0001781904
283.6081,-0.0001780567
283.7081,-0.0001779117
283.8081,-0.0001777601
283.9081,-0.0001776169
284.0081,-0.0001774841
284.1081,-0.0001773721
284.2081,-0.0001772346
284.3081,-0.000177067
284.4081,-0.0001769445
284.5081,-0.000176824
284.6082,-0.0001767147
284.7082,-0.000176532
284.8082,-0.0001764463
284.9082,-0.0001763136
285.0082,-0.000176128
285.1082,-0.0001760518
285.2082,-0.0001759237
285.3082,-0.0001757523
285.4082,-0.0001756186
285.5082,-0.0001754877
285.6082,-0.0001753634
285.7082,-0.0001751957
285.8082,-0.000175045
285.9082,-0.000174932
286.0082,-0.0001747691
286.1082,-0.0001746316
286.2083,-0.0001745271
286.3083,-0.0001743595
286.4083,-0.0001742286
286.5083,-0.000174093
286.6083,-0.000173946
286.7083,-0.0001738453
286.8083,-0.0001736918
286.9083,-0.0001735157
287.0083,-0.0001733999
287.1083,-0.0001732972
287.2083,-0.0001731286
287.3083,-0.0001730015
287.4083,-0.0001728668
287.5083,-0.0001727388
287.6083,-0.0001725862
287.7083,-0.0001724826
287.8083,-0.0001723536
287.9084,-0.0001722114
288.0084,-0.0001720899
288.1084,-0.0001719863
288.2084,-0.0001718554
288.3084,-0.000171717
288.4084,-0.0001715879
288.5084,-0.0001714524
288.6084,-0.0001713186
288.7084,-0.0001711717
288.8084,-0.0001710625
288.9084,-0.0001709184
289.0084,-0.000170746
289.1084,-0.0001706415
289.2084,-0.0001704758
289.3084,-0.0001703533
289.4084,-0.0001702064
289.5085,-0.0001700577
289.6085,-0.0001699946
289.7085,-0.0001698222
289.8085,-0.0001696697
289.9085,-0.0001695453
290.0085,-0.0001694144
290.1085,-0.0001692638
290.2085,-0.0001691413
290.3085,-0.0001690151
290.4085,-0.0001688946
290.5085,-0.0001687675
290.6085,-0.0001686526
290.7085,-0.0001685123
290.8085,-0.00016842
290.9085,-0.0001682721
291.0085,-0.0001681214
291.1086,-0.0001680009
291.2086,-0.0001678804
291.3086,-0.000167708
291.4086,-0.0001675865
291.5086,-0.0001674509
291.6086,-0.0001673031
291.7086,-0.0001671486
291.8086,-0.0001670441
291.9086,-0.0001669057
292.0086,-0.0001667493
292.1086,-0.0001666344
292.2086,-0.0001665101
292.3086,-0.0001663736
292.4086,-0.0001662286
292.5086,-0.0001661447
292.6086,-0.0001660251
292.7086,-0.0001658764
292.8087,-0.0001657916
292.9087,-0.0001656437
293.0087,-0.0001654997
293.1087,-0.0001654008
293.2087,-0.0001652868
293.3087,-0.0001651116
293.4087,-0.0001650184
293.5087,-0.0001649271
293.6087,-0.0001647736
293.7087,-0.0001646154
293.8087,-0.0001645561
293.9087,-0.0001643903
294.0087,-0.0001642632
294.1087,-0.0001641511
294.2087,-0.0001640249
294.3087,-0.0001638676
294.4088,-0.000163732
294.5088,-0.0001636379
294.6088,-0.0001635117
294.7088,-0.0001633666
294.8088,-0.000163263
294.9088,-0.0001631293
295.0088,-0.0001629899
295.1088,-0.0001628958
295.2088,-0.0001627781
295.3088,-0.0001626076
295.4088,-0.0001624871
295.5088,-0.0001623901
295.6088,-0.0001622008
295.7088,-0.0001620981
295.8088,-0.0001620303
295.9088,-0.0001618844
296.0089,-0.0001617196
296.1089,-0.0001616499
296.2089,-0.0001615256
296.3089,-0.0001613739
296.4089,-0.00016126
296.5089,-0.0001611507
296.6089,-0.0001610198
296.7089,-0.000160905
296.8089,-0.0001607543
296.9089,-0.0001606413
297.0089,-0.0001605424
297.1089,-0.0001604181
297.2089,-0.0001602815
297.3089,-0.0001601949
297.4089,-0.0001600536
297.5089,-0.0001599171
297.6089,-0.0001598361
297.709,-0.0001597127
297.809,-0.0001595903
297.909,-0.0001594877
298.009,-0.000159385
298.109,-0.0001592437
298.209,-0.0001591411
298.309,-0.0001590262
298.409,-0.0001589094
298.509,-0.0001587625
298.609,-0.0001586382
298.709,-0.0001585139
298.809,-0.0001583698
298.909,-0.0001582436
299.009,-0.0001581315
299.109,-0.0001580091
299.209,-0.0001578848
299.3091,-0.0001577718
299.4091,-0.0001576739
299.5091,-0.0001575204
299.6091,-0.0001573857
299.7091,-0.0001572849
299.8091,-0.0001571729
299.9091,-0.0001570382
300.0091,-0.0001569158
300.1091,-0.0001568329
300.2091,-0.0001567114
300.3091,-0.0001565673
300.4091,-0.0001564637
300.5091,-0.000156346
300.6091,-0.0001561963
300.7091,-0.0001560852
300.8091,-0.0001559901
300.9091,-0.000155846
301.0092,-0.0001556962
301.1092,-0.0001555936
301.2092,-0.0001555013
301.3092,-0.0001553506
301.4092,-0.0001552197
301.5092,-0.0001551246
301.6092,-0.0001550201
301.7092,-0.000154892
301.8092,-0.0001547686
301.9092,-0.0001546594
302.0092,-0.0001545671
302.1092,-0.0001544381
302.2092,-0.0001542987
302.3092,-0.0001541857
302.4092,-0.000154084
302.5092,-0.0001539861
302.6093,-0.0001538617
302.7093,-0.0001537384
302.8093,-0.0001536414
302.9093,-0.0001534954
303.0093,-0.0001534012
303.1093,-0.0001533118
303.2093,-0.0001531564
303.3093,-0.0001530208
303.4093,-0.0001529417
303.5093,-0.0001528258
303.6093,-0.0001526874
303.7093,-0.0001525819
303.8093,-0.0001524783
303.9093,-0.0001523578
304.0093,-0.000152258
304.1093,-0.0001521337
304.2094,-0.0001519962
304.3094,-0.0001519124
304.4094,-0.000151805
304.5094,-0.0001516666
304.6094,-0.000151563
304.7094,-0.0001514688
304.8094,-0.0001513322
304.9094,-0.0001512334
305.0094,-0.0001511138
305.1094,-0.0001509829
305.2094,-0.0001508793
305.3094,-0.0001507606
305.4094,-0.0001506702
305.5094,-0.0001505177
305.6094,-0.0001504254
305.7094,-0.0001503161
305.8094,-0.0001501843
305.9095,-0.0001500732
306.0095,-0.0001499705
306.1095,-0.0001498424
306.2095,-0.0001497662
306.3095,-0.000149639
306.4095,-0.0001495345
306.5095,-0.0001494262
306.6095,-0.000149332
306.7095,-0.0001492143
306.8095,-0.000149089
306.9095,-0.0001489892
307.0095,-0.0001488819
307.1095,-0.0001487397
307.2095,-0.0001486408
307.3095,-0.0001485155
307.4095,-0.0001484393
307.5096,-0.0001483564
307.6096,-0.0001482575
307.7096,-0.0001481172
307.8096,-0.0001480607
307.9096,-0.0001479251
308.0096,-0.0001478064
308.1096,-0.0001477678
308.2096,-0.0001476152
308.3096,-0.0001474787
308.4096,-0.0001473958
308.5096,-0.0001472922
308.6096,-0.0001471463
308.7096,-0.0001470427
308.8096,-0.0001469504
308.9096,-0.0001468336
309.0096,-0.0001466848
309.1096,-0.0001466123
309.2097,-0.0001464757
309.3097,-0.0001463458
309.4097,-0.0001462516
309.5097,-0.0001461386
309.6097,-0.0001460152
309.7097,-0.0001458956
309.8097,-0.0001458024
309.9097,-0.0001457045
310.0097,-0.0001455689
310.1097,-0.0001454879
310.2097,-0.0001453918
310.3097,-0.0001452327
310.4097,-0.000145162
310.5097,-0.0001450726
310.6097,-0.0001449031
310.7097,-0.0001448174
310.8098,-0.0001447307
310.9098,-0.0001445961
311.0098,-0.0001444972
311.1098,-0.0001444218
311.2098,-0.0001442872
311.3098,-0.0001441497
311.4098,-0.0001440706
311.5098,-0.0001439783
311.6098,-0.0001438483
311.7098,-0.00014374
311.8098,-0.0001436496
311.9098,-0.0001435065
312.0098,-0.0001434151
312.1098,-0.0001432974
312.2098,-0.00014319
312.3098,-0.0001431166
312.4099,-0.0001430318
312.5099,-0.0001428887
312.6099,-0.0001428068
312.7099,-0.0001426815
312.8099,-0.0001425638
312.9099,-0.000142464
313.0099,-0.0001423924
313.1099,-0.0001422775
313.2099,-0.0001421683
313.3099,-0.0001421268
313.4099,-0.0001420025
313.5099,-0.00014185
313.6099,-0.0001417953
313.7099,-0.0001416908
313.8099,-0.0001415646
313.9099,-0.0001414591
314.0099,-0.0001413669
314.11,-0.0001412755
314.21,-0.0001411427
314.31,-0.0001410401
314.41,-0.0001409534
314.51,-0.0001408122
314.61,-0.0001407208
314.71,-0.0001406332
314.81,-0.0001405061
314.91,-0.0001404025
315.01,-0.0001403065
315.11,-0.0001402076
315.21,-0.0001400833
315.31,-0.0001399505
315.41,-0.0001398817
315.51,-0.0001397565
315.61,-0.0001396482
315.7101,-0.0001395521
315.8101,-0.0001394552
315.9101,-0.0001393459
316.0101,-0.0001392574
316.1101,-0.0001391359
316.2101,-0.0001390653
316.3101,-0.0001389466
316.4101,-0.0001388327
316.5101,-0.0001387404
316.6101,-0.0001386556
316.7101,-0.000138552
316.8101,-0.0001384494
316.9101,-0.0001383533
317.0101,-0.0001382469
317.1101,-0.0001381339
317.2101,-0.0001380303
317.3102,-0.0001379286
317.4102,-0.0001378288
317.5102,-0.0001377261
317.6102,-0.0001376517
317.7102,-0.0001375387
317.8102,-0.0001374568
317.9102,-0.0001373391
318.0102,-0.0001372261
318.1102,-0.0001371319
318.2102,-0.0001370113
318.3102,-0.0001368993
318.4102,-0.000136856
318.5102,-0.0001367279
318.6102,-0.0001366215
318.7102,-0.0001365405
318.8102,-0.0001364406
318.9102,-0.0001363324
319.0103,-0.0001362222
319.1103,-0.0001361384
319.2103,-0.0001360093
319.3103,-0.0001359312
319.4103,-0.0001358229
319.5103,-0.0001357127
319.6103,-0.0001356091
319.7103,-0.0001355319
319.8103,-0.0001354217
319.9103,-0.0001352852
320.0103,-0.0001352173
320.1103,-0.0001351307
320.2103,-0.0001349998
320.3103,-0.0001349075
320.4103,-0.0001348171
320.5103,-0.0001346862
320.6104,-0.0001346316
320.7104,-0.0001345299
320.8104,-0.0001343914
320.9104,-0.0001343415
321.0104,-0.0001342568
321.1104,-0.0001341165
321.2104,-0.0001340628
321.3104,-0.0001339903
321.4104,-0.0001338575
321.5104,-0.0001337671
321.6104,-0.0001336767
321.7104,-0.0001335853
321.8104,-0.0001334817
321.9104,-0.0001333904
322.0104,-0.0001333179
322.1104,-0.0001332152
322.2104,-0.0001331361
322.3105,-0.0001330118
322.4105,-0.0001329139
322.5105,-0.000132814
322.6105,-0.0001326841
322.7105,-0.0001325975
322.8105,-0.0001325221
322.9105,-0.0001324006
323.0105,-0.0001323036
323.1105,-0.0001321953
323.2105,-0.0001321143
323.3105,-0.0001320183
323.4105,-0.0001319119
323.5105,-0.000131813
323.6105,-0.0001317122
323.7105,-0.0001316049
323.8105,-0.0001315145
323.9106,-0.0001314127
324.0106,-0.0001313157
324.1106,-0.0001312319
324.2106,-0.0001311086
324.3106,-0.0001310097
324.4106,-0.0001309504
324.5106,-0.0001308534
324.6106,-0.0001307046
324.7106,-0.0001306302
324.8106,-0.0001305576
324.9106,-0.0001304371
325.0106,-0.000130326
325.1106,-0.0001302836
325.2106,-0.0001302007
325.3106,-0.0001300538
325.4106,-0.0001299945
325.5107,-0.0001299295
325.6107,-0.0001297817
325.7107,-0.0001297035
325.8107,-0.0001296131
325.9107,-0.0001295086
326.0107,-0.0001294351
326.1107,-0.0001293372
326.2107,-0.0001292289
326.3107,-0.0001291629
326.4107,-0.0001290377
326.5107,-0.0001289501
326.6107,-0.0001288494
326.7107,-0.0001287787
326.8107,-0.0001286422
326.9107,-0.0001285828
327.0107,-0.0001285
327.1107,-0.0001283907
327.2108,-0.0001283003
327.3108,-0.0001282523
327.4108,-0.0001281506
327.5108,-0.0001280461
327.6108,-0.0001279933
327.7108,-0.0001278897
327.8108,-0.0001277852
327.9108,-0.0001277325
328.0108,-0.0001276439
328.1108,-0.0001275535
328.2108,-0.0001274744
328.3108,-0.0001273821
328.4108,-0.0001273153
328.5108,-0.0001272522
328.6108,-0.0001271665
328.7108,-0.0001270469
328.8109,-0.0001269857
328.9109,-0.0001269131
329.0109,-0.0001267898
329.1109,-0.0001266749
329.2109,-0.0001266485
329.3109,-0.0001265628
329.4109,-0.00012643
329.5109,-0.0001263453
329.6109,-0.0001262756
329.7109,-0.0001261673
329.8109,-0.0001261118
329.9109,-0.0001260345
330.0109,-0.000125914
330.1109,-0.0001258697
330.2109,-0.0001258066
330.3109,-0.0001256832
330.4109,-0.0001255684
330.511,-0.0001255006
330.611,-0.0001254064
330.711,-0.0001253019
330.811,-0.0001252133
330.911,-0.0001250984
331.011,-0.0001250128
331.111,-0.000124928
331.211,-0.0001248103
331.311,-0.0001247462
331.411,-0.0001246605
331.511,-0.0001245579
331.611,-0.0001244712
331.711,-0.0001243959
331.811,-0.0001243178
331.911,-0.0001241991
332.011,-0.0001241209
332.1111,-0.000124088
332.2111,-0.000123941
332.3111,-0.0001238459
332.4111,-0.0001237772
332.5111,-0.0001236774
332.6111,-0.0001235597
332.7111,-0.0001234768
332.8111,-0.0001233836
332.9111,-0.0001232753
333.0111,-0.0001231943
333.1111,-0.0001231443
333.2111,-0.0001230248
333.3111,-0.0001229212
333.4111,-0.0001228901
333.5111,-0.0001227856
333.6111,-0.0001226471
333.7112,-0.0001226179
333.8112,-0.0001225398
333.9112,-0.0001223844
334.0112,-0.0001223411
334.1112,-0.0001222657
334.2112,-0.0001221471
334.3112,-0.0001220783
334.4112,-0.0001220275
334.5112,-0.0001218918
334.6112,-0.000121793
334.7112,-0.0001217336
334.8112,-0.0001216508
334.9112,-0.0001215538
335.0112,-0.000121486
335.1112,-0.0001214285
335.2112,-0.000121308
335.3112,-0.0001212778
335.4113,-0.0001211799
335.5113,-0.0001210829
335.6113,-0.0001210123
335.7113,-0.0001209106
335.8113,-0.0001208258
335.9113,-0.0001207307
336.0113,-0.0001206356
336.1113,-0.0001205555
336.2113,-0.000120483
336.3113,-0.0001203898
336.4113,-0.0001203229
336.5113,-0.0001202363
336.6113,-0.0001201496
336.7113,-0.0001200649
336.8113,-0.0001199848
336.9113,-0.0001199123
337.0114,-0.0001198069
337.1114,-0.0001196995
337.2114,-0.0001196628
337.3114,-0.0001195846
337.4114,-0.0001194659
337.5114,-0.0001194113
337.6114,-0.0001193247
337.7114,-0.0001192145
337.8114,-0.0001191119
337.9114,-0.0001190346
338.0114,-0.0001189715
338.1114,-0.0001188501
338.2114,-0.0001188096
338.3114,-0.0001187305
338.4114,-0.000118608
338.5114,-0.0001185685
338.6115,-0.000118463
338.7115,-0.0001183679
338.8115,-0.0001183538
338.9115,-0.0001182455
339.0115,-0.0001181362
339.1115,-0.0001180571
339.2115,-0.0001179714
339.3115,-0.0001178895
339.4115,-0.0001178076
339.5115,-0.0001177228
339.6115,-0.0001176154
339.7115,-0.0001175505
339.8115,-0.0001175071
339.9115,-0.00011738
340.0115,-0.000117283
340.1115,-0.0001172378
340.2115,-0.0001171361
340.3116,-0.0001170617
340.4116,-0.0001169788
340.5116,-0.000116895
340.6116,-0.0001168169
340.7116,-0.0001167604
340.8116,-0.0001166464
340.9116,-0.0001165466
341.0116,-0.0001164929
341.1116,-0.000116411
341.2116,-0.0001163149
341.3116,-0.0001162179
341.4116,-0.00011612
341.5116,-0.0001160371
341.6116,-0.0001159712
341.7116,-0.0001159024
341.8116,-0.0001158101
341.9117,-0.0001157348
342.0117,-0.0001156501
342.1117,-0.0001155644
342.2117,-0.00011549
342.3117,-0.0001154231
342.4117,-0.0001153223
342.5117,-0.0001152319
342.6117,-0.000115183
342.7117,-0.0001150973
342.8117,-0.0001149908
342.9117,-0.0001149249
343.0117,-0.0001148703
343.1117,-0.0001147733
343.2117,-0.0001146725
343.3117,-0.0001146142
343.4117,-0.0001145831
343.5117,-0.0001144719
343.6118,-0.0001143928
343.7118,-0.0001143354
343.8118,-0.0001142356
343.9118,-0.0001141857
344.0118,-0.0001141169
344.1118,-0.000114018
344.2118,-0.0001139352
344.3118,-0.0001138702
344.4118,-0.0001137722
344.5118,-0.0001136799
344.6118,-0.0001136084
344.7118,-0.0001135133
344.8118,-0.0001134398
344.9118,-0.0001133635
345.0118,-0.0001132759
345.1118,-0.0001132345
345.2119,-0.0001131422
345.3119,-0.0001130368
345.4119,-0.0001129595
345.5119,-0.0001128946
345.6119,-0.0001128041
345.7119,-0.0001126968
345.8119,-0.0001126535
345.9119,-0.0001125536
346.0119,-0.0001124576
346.1119,-0.0001124293
346.2119,-0.0001123493
346.3119,-0.0001122457
346.4119,-0.0001121817
346.5119,-0.0001121242
346.6119,-0.0001120234
346.7119,-0.0001119151
346.812,-0.0001118615
346.912,-0.0001117692
347.012,-0.000111707
347.112,-0.000111626
347.212,-0.0001115356
347.312,-0.0001114499
347.412,-0.0001113727
347.512,-0.0001113002
347.612,-0.0001112296
347.712,-0.0001111862
347.812,-0.0001110864
347.912,-0.0001109904
348.012,-0.0001109273
348.112,-0.0001108708
348.212,-0.000110737
348.312,-0.0001106937
348.412,-0.0001106363
348.5121,-0.0001104856
348.6121,-0.0001104272
348.7121,-0.0001103961
348.8121,-0.0001102944
348.9121,-0.0001102163
349.0121,-0.0001101494
349.1121,-0.000110091
349.2121,-0.0001099997
349.3121,-0.0001099563
349.4121,-0.0001098782
349.5121,-0.0001098019
349.6121,-0.0001097416
349.7121,-0.0001096437
349.8121,-0.0001095439
349.9121,-0.0001095118
350.0121,-0.0001094158
350.1122,-0.0001093226
350.2122,-0.000109284
350.3122,-0.0001092237
350.4122,-0.0001091078
350.5122,-0.0001090363
350.6122,-0.0001089995
350.7122,-0.0001088828
350.8122,-0.0001088103
350.9122,-0.0001087829
351.0122,-0.000108685
351.1122,-0.0001085871
351.2122,-0.0001085475
351.3122,-0.000108459
351.4122,-0.0001083695
351.5122,-0.0001083526
351.6122,-0.0001082556
351.7122,-0.0001081501
351.8123,-0.0001080993
351.9123,-0.0001080418
352.0123,-0.0001079297
352.1123,-0.0001078497
352.2123,-0.0001078073
352.3123,-0.0001077169
352.4123,-0.0001076227
352.5123,-0.0001075644
352.6123,-0.0001074937
352.7123,-0.0001074071
352.8123,-0.0001073487
352.9123,-0.0001072658
353.0123,-0.0001072027
353.1123,-0.0001071528
353.2123,-0.0001070671
353.3123,-0.0001070003
353.4124,-0.0001069259
353.5124,-0.0001068336
353.6124,-0.0001067441
353.7124,-0.0001067149
353.8124,-0.0001066433
353.9124,-0.000106535
354.0124,-0.0001064766
354.1124,-0.0001064107
354.2124,-0.000106309
354.3124,-0.0001062563
354.4124,-0.0001061894
354.5124,-0.0001060877
354.6124,-0.0001060048
354.7124,-0.0001059464
354.8124,-0.0001058796
354.9124,-0.0001057958
355.0125,-0.0001057402
355.1125,-0.0001056941
355.2125,-0.000105599
355.3125,-0.0001055716
355.4125,-0.0001055151
355.5125,-0.0001054285
355.6125,-0.0001053795
355.7125,-0.0001053146
355.8125,-0.0001052279
355.9125,-0.0001051092
356.0125,-0.0001050301
356.1125,-0.0001049623
356.2125,-0.0001048936
356.3125,-0.0001048333
356.4125,-0.0001047448
356.5125,-0.0001046742
356.6125,-0.0001046082
356.7126,-0.0001045386
356.8126,-0.0001044453
356.9126,-0.0001043982
357.0126,-0.0001043465
357.1126,-0.0001042287
357.2126,-0.0001041845
357.3126,-0.0001041289
357.4126,-0.0001040507
357.5126,-0.0001039641
357.6126,-0.0001038925
357.7126,-0.0001038332
357.8126,-0.0001037569
357.9126,-0.0001036693
358.0126,-0.000103611
358.1126,-0.0001035318
358.2126,-0.000103481
358.3127,-0.0001034113
358.4127,-0.0001033021
358.5127,-0.0001032748
358.6127,-0.0001031947
358.7127,-0.0001031118
358.8127,-0.0001030544
358.9127,-0.0001029894
359.0127,-0.000102916
359.1127,-0.000102851
359.2127,-0.000102786
359.3127,-0.0001026994
359.4127,-0.000102625
359.5127,-0.0001025562
359.6127,-0.0001025073
359.7127,-0.0001024206
359.8127,-0.0001023575
359.9128,-0.0001022954
360.0128,-0.0001022464
360.1128,-0.0001021513
360.2128,-0.0001020684
360.3128,-0.0001020157
360.4128,-0.0001019667
360.5128,-0.0001018716
360.6128,-0.0001018009
360.7128,-0.0001017774
360.8128,-0.0001016974
360.9128,-0.0001015891
361.0128,-0.0001015778
361.1128,-0.0001014949
361.2128,-0.0001013838
361.3128,-0.0001013451
361.4128,-0.0001013084
361.5128,-0.0001012284
361.6129,-0.0001011502
361.7129,-0.0001011172
361.8129,-0.0001010203
361.9129,-0.0001009327
362.0129,-0.0001008865
362.1129,-0.0001008451
362.2129,-0.0001007726
362.3129,-0.0001007085
362.4129,-0.0001006332
362.5129,-0.0001005569
362.6129,-0.0001005061
362.7129,-0.0001004411
362.8129,-0.0001003366
362.9129,-0.0001002923
363.0129,-0.0001002405
363.1129,-0.0001001284
363.213,-0.0001000776
363.313,-0.0001000296
363.413,-9.990995E-05
363.513,-9.983744E-05
363.613,-9.983932E-05
363.713,-9.974515E-05
363.813,-9.963214E-05
363.913,-9.960106E-05
364.013,-9.955492E-05
364.113,-9.945699E-05
364.213,-9.93986E-05
364.313,-9.932231E-05
364.413,-9.927712E-05
364.513,-9.922531E-05
364.613,-9.913774E-05
364.713,-9.905957E-05
364.813,-9.899931E-05
364.9131,-9.895692E-05
365.0131,-9.88797E-05
365.1131,-9.880248E-05
365.2131,-9.874409E-05
365.3131,-9.865463E-05
365.4131,-9.863391E-05
365.5131,-9.853879E-05
365.6131,-9.844839E-05
365.7131,-9.841355E-05
365.8131,-9.83721E-05
365.9131,-9.827511E-05
366.0131,-9.821483E-05
366.1131,-9.815362E-05
366.2131,-9.808864E-05
366.3131,-9.800294E-05
366.4131,-9.795303E-05
366.5132,-9.789559E-05
366.6132,-9.780235E-05
366.7132,-9.772796E-05
366.8132,-9.767993E-05
366.9132,-9.762061E-05
367.0132,-9.754903E-05
367.1132,-9.747747E-05
367.2132,-9.742002E-05
367.3132,-9.735786E-05
367.4132,-9.728818E-05
367.5132,-9.721378E-05
367.6132,-9.720153E-05
367.7132,-9.711678E-05
367.8132,-9.700189E-05
367.9132,-9.69727E-05
368.0132,-9.692655E-05
368.1133,-9.680977E-05
368.2133,-9.676363E-05
368.3133,-9.672879E-05
368.4133,-9.665062E-05
368.5133,-9.657152E-05
368.6133,-9.651313E-05
368.7133,-9.644344E-05
368.8133,-9.638318E-05
368.9133,-9.631254E-05
369.0133,-9.625321E-05
369.1133,-9.619294E-05
369.2133,-9.612702E-05
369.3133,-9.60319E-05
369.4133,-9.597917E-05
369.5133,-9.595656E-05
369.6133,-9.588782E-05
369.7133,-9.578235E-05
369.8134,-9.578328E-05
369.9134,-9.569853E-05
370.0134,-9.56213E-05
370.1134,-9.556481E-05
370.2134,-9.5497E-05
370.3134,-9.543767E-05
370.4134,-9.542731E-05
370.5134,-9.535103E-05
370.6134,-9.529171E-05
370.7134,-9.525027E-05
370.8134,-9.522484E-05
370.9134,-9.511183E-05
371.0134,-9.509112E-05
371.1134,-9.504591E-05
371.2134,-9.492914E-05
371.3134,-9.486509E-05
371.4135,-9.483968E-05
371.5135,-9.472007E-05
371.6135,-9.466827E-05
371.7135,-9.460894E-05
371.8135,-9.453549E-05
371.9135,-9.443755E-05
372.0135,-9.436787E-05
372.1135,-9.432643E-05
372.2135,-9.420777E-05
372.3135,-9.415315E-05
372.4135,-9.41296E-05
372.5135,-9.402602E-05
372.6135,-9.393561E-05
372.7135,-9.395351E-05
372.8135,-9.387816E-05
372.9135,-9.378493E-05
373.0135,-9.37774E-05
373.1136,-9.371524E-05
373.2136,-9.361919E-05
373.3136,-9.359659E-05
373.4136,-9.352031E-05
373.5136,-9.343273E-05
373.6136,-9.338658E-05
373.7136,-9.332913E-05
373.8136,-9.323779E-05
373.9136,-9.316528E-05
374.0136,-9.312949E-05
374.1136,-9.308335E-05
374.2136,-9.299953E-05
374.3136,-9.294397E-05
374.4136,-9.290253E-05
374.5136,-9.280082E-05
374.6136,-9.27641E-05
374.7137,-9.271419E-05
374.8137,-9.263225E-05
374.9137,-9.256446E-05
375.0137,-9.251266E-05
375.1137,-9.245804E-05
375.2137,-9.240247E-05
375.3137,-9.233089E-05
375.4137,-9.224237E-05
375.5137,-9.221977E-05
375.6137,-9.214255E-05
375.7137,-9.204838E-05
375.8137,-9.203426E-05
375.9137,-9.199941E-05
376.0137,-9.186474E-05
376.1137,-9.186569E-05
376.2137,-9.184214E-05
376.3138,-9.174892E-05
376.4138,-9.168016E-05
376.5138,-9.164909E-05
376.6138,-9.158317E-05
376.7138,-9.149464E-05
376.8138,-9.144568E-05
376.9138,-9.141272E-05
377.0138,-9.131854E-05
377.1138,-9.125544E-05
377.2138,-9.120176E-05
377.3138,-9.114337E-05
377.4138,-9.110005E-05
377.5138,-9.103979E-05
377.6138,-9.09588E-05
377.7138,-9.093148E-05
377.8138,-9.087686E-05
377.9138,-9.079964E-05
378.0139,-9.073561E-05
378.1139,-9.071678E-05
378.2139,-9.064426E-05
378.3139,-9.055668E-05
378.4139,-9.056798E-05
378.5139,-9.050017E-05
378.6139,-9.039282E-05
378.7139,-9.038246E-05
378.8139,-9.02977E-05
378.9139,-9.021295E-05
379.0139,-9.015268E-05
379.1139,-9.016021E-05
379.2139,-9.00472E-05
379.3139,-8.998223E-05
379.4139,-8.997657E-05
379.5139,-8.994361E-05
379.614,-8.986262E-05
379.714,-8.978164E-05
379.814,-8.974302E-05
379.914,-8.966297E-05
380.014,-8.959047E-05
380.114,-8.954055E-05
380.214,-8.947651E-05
380.314,-8.941624E-05
380.414,-8.933054E-05
380.514,-8.925709E-05
380.614,-8.925144E-05
380.714,-8.921188E-05
380.814,-8.910641E-05
380.914,-8.907627E-05
381.014,-8.899717E-05
381.114,-8.892466E-05
381.2141,-8.889358E-05
381.3141,-8.886438E-05
381.4141,-8.878433E-05
381.5141,-8.871842E-05
381.6141,-8.870429E-05
381.7141,-8.865061E-05
381.8141,-8.850182E-05
381.9141,-8.8499E-05
382.0141,-8.843307E-05
382.1141,-8.833419E-05
382.2141,-8.828428E-05
382.3141,-8.826167E-05
382.4141,-8.817315E-05
382.5141,-8.810441E-05
382.6141,-8.805921E-05
382.7141,-8.799517E-05
382.8141,-8.794996E-05
382.9142,-8.788404E-05
383.0142,-8.783131E-05
383.1142,-8.777951E-05
383.2142,-8.774184E-05
383.3142,-8.766368E-05
383.4142,-8.758457E-05
383.5142,-8.756385E-05
383.6142,-8.7513E-05
383.7142,-8.743483E-05
383.8142,-8.739151E-05
383.9142,-8.733784E-05
384.0142,-8.728888E-05
384.1142,-8.720506E-05
384.2142,-8.718811E-05
384.3142,-8.709676E-05
384.4142,-8.705155E-05
384.5143,-8.699505E-05
384.6143,-8.693761E-05
384.7143,-8.68877E-05
384.8143,-8.681518E-05
384.9143,-8.67615E-05
385.0143,-8.671912E-05
385.1143,-8.666921E-05
385.2143,-8.661082E-05
385.3143,-8.656656E-05
385.4143,-8.653266E-05
385.5143,-8.645732E-05
385.6143,-8.639611E-05
385.7143,-8.636221E-05
385.8143,-8.628592E-05
385.9143,-8.621435E-05
386.0143,-8.618798E-05
386.1143,-8.613619E-05
386.2144,-8.605897E-05
386.3144,-8.600341E-05
386.4144,-8.599021E-05
386.5144,-8.590076E-05
386.6144,-8.585933E-05
386.7144,-8.582542E-05
386.8144,-8.57482E-05
386.9144,-8.569923E-05
387.0144,-8.56672E-05
387.1144,-8.562577E-05
387.2144,-8.553725E-05
387.3144,-8.55203E-05
387.4144,-8.547039E-05
387.5144,-8.540069E-05
387.6144,-8.540069E-05
387.7144,-8.535267E-05
387.8145,-8.526791E-05
387.9145,-8.523685E-05
388.0145,-8.516903E-05
388.1145,-8.511065E-05
388.2145,-8.503625E-05
388.3145,-8.496562E-05
388.4145,-8.492795E-05
388.5145,-8.485826E-05
388.6145,-8.480176E-05
388.7145,-8.477538E-05
388.8145,-8.46991E-05
388.9145,-8.467934E-05
389.0145,-8.460775E-05
389.1145,-8.451171E-05
389.2145,-8.452112E-05
389.3145,-8.444578E-05
389.4146,-8.435914E-05
389.5146,-8.432147E-05
389.6146,-8.429699E-05
389.7146,-8.421035E-05
389.8146,-8.415102E-05
389.9146,-8.413312E-05
390.0146,-8.403613E-05
390.1146,-8.39721E-05
390.2146,-8.395137E-05
390.3146,-8.391181E-05
390.4146,-8.383649E-05
390.5146,-8.380729E-05
390.6146,-8.375455E-05
390.7146,-8.366792E-05
390.8146,-8.363778E-05
390.9146,-8.357656E-05
391.0146,-8.351912E-05
391.1147,-8.346544E-05
391.2147,-8.344473E-05
391.3147,-8.336373E-05
391.4147,-8.329687E-05
391.5147,-8.32771E-05
391.6147,-8.322435E-05
391.7147,-8.316314E-05
391.8147,-8.310194E-05
391.9147,-8.305861E-05
392.0147,-8.302189E-05
392.1147,-8.29748E-05
392.2147,-8.290228E-05
392.3147,-8.291077E-05
392.4147,-8.286085E-05
392.5147,-8.276667E-05
392.6147,-8.276574E-05
392.7148,-8.27064E-05
392.8148,-8.262542E-05
392.9148,-8.257833E-05
393.0148,-8.253878E-05
393.1148,-8.247379E-05
393.2148,-8.24107E-05
393.3148,-8.238622E-05
393.4148,-8.231559E-05
393.5148,-8.227697E-05
393.6148,-8.223742E-05
393.7148,-8.219505E-05
393.8148,-8.213759E-05
393.9148,-8.212629E-05
394.0148,-8.205943E-05
394.1148,-8.197751E-05
394.2148,-8.19502E-05
394.3148,-8.190499E-05
394.4149,-8.180705E-05
394.5149,-8.174677E-05
394.6149,-8.17496E-05
394.7149,-8.168839E-05
394.8149,-8.160834E-05
394.9149,-8.157162E-05
395.0149,-8.151511E-05
395.1149,-8.146991E-05
395.2149,-8.14134E-05
395.3149,-8.138327E-05
395.4149,-8.130605E-05
395.5149,-8.125332E-05
395.6149,-8.122507E-05
395.7149,-8.118927E-05
395.8149,-8.113371E-05
395.9149,-8.113748E-05
396.015,-8.107438E-05
396.115,-8.098962E-05
396.215,-8.100188E-05
396.315,-8.093124E-05
396.415,-8.084366E-05
396.515,-8.079657E-05
396.615,-8.074478E-05
396.715,-8.068074E-05
396.815,-8.061011E-05
396.915,-8.058751E-05
397.015,-8.05263E-05
397.115,-8.046226E-05
397.215,-8.043966E-05
397.315,-8.039822E-05
397.415,-8.032289E-05
397.515,-8.028145E-05
397.6151,-8.02466E-05
397.7151,-8.017315E-05
397.8151,-8.013265E-05
397.9151,-8.007897E-05
398.0151,-8.000457E-05
398.1151,-7.998669E-05
398.2151,-7.994242E-05
398.3151,-7.985578E-05
398.4151,-7.982189E-05
398.5151,-7.981058E-05
398.6151,-7.972017E-05
398.7151,-7.968251E-05
398.8151,-7.966837E-05
398.9151,-7.959022E-05
399.0151,-7.953089E-05
399.1151,-7.952147E-05
399.2151,-7.945838E-05
399.3152,-7.93755E-05
399.4152,-7.934537E-05
399.5152,-7.929169E-05
399.6152,-7.922199E-05
399.7152,-7.921446E-05
399.8152,-7.914854E-05
399.9152,-7.909863E-05
400.0152,-7.908168E-05
400.1152,-7.898186E-05
400.2152,-7.892535E-05
400.3152,-7.88971E-05
400.4152,-7.885096E-05
400.5152,-7.877467E-05
400.6152,-7.875208E-05
400.7152,-7.869746E-05
400.8152,-7.864284E-05
400.9153,-7.858539E-05
401.0153,-7.85788E-05
401.1153,-7.851946E-05
401.2153,-7.843942E-05
401.3153,-7.842341E-05
401.4153,-7.840363E-05
401.5153,-7.830381E-05
401.6153,-7.828497E-05
401.7153,-7.827556E-05
401.8153,-7.819175E-05
401.9153,-7.81456E-05
402.0153,-7.808909E-05
402.1153,-7.804766E-05
402.2153,-7.800152E-05
402.3153,-7.793088E-05
402.4153,-7.790169E-05
402.5154,-7.78546E-05
402.6154,-7.778209E-05
402.7154,-7.773689E-05
402.8154,-7.768886E-05
402.9154,-7.765402E-05
403.0154,-7.758998E-05
403.1154,-7.751935E-05
403.2154,-7.749863E-05
403.3154,-7.749393E-05
403.4154,-7.74167E-05
403.5154,-7.736585E-05
403.6154,-7.731783E-05
403.7154,-7.727732E-05
403.8154,-7.720764E-05
403.9154,-7.718032E-05
404.0154,-7.712853E-05
404.1154,-7.705978E-05
404.2155,-7.703247E-05
404.3155,-7.700328E-05
404.4155,-7.694207E-05
404.5155,-7.688085E-05
404.6155,-7.686955E-05
404.7155,-7.682906E-05
404.8155,-7.676503E-05
404.9155,-7.670569E-05
405.0155,-7.667839E-05
405.1155,-7.665013E-05
405.2155,-7.658044E-05
405.3155,-7.652018E-05
405.4155,-7.65004E-05
405.5155,-7.64147E-05
405.6155,-7.637702E-05
405.7155,-7.63356E-05
405.8156,-7.627438E-05
405.9156,-7.623483E-05
406.0156,-7.620187E-05
406.1156,-7.615761E-05
406.2156,-7.610581E-05
406.3156,-7.605496E-05
406.4156,-7.601164E-05
406.5156,-7.596832E-05
406.6156,-7.589487E-05
406.7156,-7.588827E-05
406.8156,-7.586661E-05
406.9156,-7.577526E-05
407.0156,-7.574513E-05
407.1156,-7.572159E-05
407.2156,-7.566885E-05
407.3156,-7.559633E-05
407.4156,-7.55502E-05
407.5157,-7.553701E-05
407.6157,-7.548521E-05
407.7157,-7.540893E-05
407.8157,-7.541175E-05
407.9157,-7.535337E-05
408.0157,-7.529781E-05
408.1157,-7.523942E-05
408.2157,-7.52187E-05
408.3157,-7.51782E-05
408.4157,-7.511605E-05
408.5157,-7.504354E-05
408.6157,-7.506048E-05
408.7157,-7.502E-05
408.8157,-7.494277E-05
408.9157,-7.492393E-05
409.0157,-7.488627E-05
409.1158,-7.483258E-05
409.2158,-7.488062E-05
409.3158,-7.482318E-05
409.4158,-7.475348E-05
409.5158,-7.477326E-05
409.6158,-7.474877E-05
409.7158,-7.464612E-05
409.8158,-7.458397E-05
409.9158,-7.459245E-05
410.0158,-7.451805E-05
410.1158,-7.438903E-05
410.2158,-7.439469E-05
410.3158,-7.434948E-05
410.4158,-7.424495E-05
410.5158,-7.423553E-05
410.6158,-7.418467E-05
410.7159,-7.410745E-05
410.8159,-7.407826E-05
410.9159,-7.403589E-05
411.0159,-7.400198E-05
411.1159,-7.393135E-05
411.2159,-7.389934E-05
411.3159,-7.387673E-05
411.4159,-7.37835E-05
411.5159,-7.376561E-05
411.6159,-7.374018E-05
411.7159,-7.367332E-05
411.8159,-7.364036E-05
411.9159,-7.358574E-05
412.0159,-7.35151E-05
412.1159,-7.350757E-05
412.2159,-7.347461E-05
412.3159,-7.338044E-05
412.416,-7.336914E-05
412.516,-7.333147E-05
412.616,-7.32486E-05
412.716,-7.321564E-05
412.816,-7.323542E-05
412.916,-7.319774E-05
413.016,-7.312052E-05
413.116,-7.309697E-05
413.216,-7.308002E-05
413.316,-7.300751E-05
413.416,-7.294724E-05
413.516,-7.294159E-05
413.616,-7.28719E-05
413.716,-7.282859E-05
413.816,-7.276266E-05
413.916,-7.272217E-05
414.0161,-7.268827E-05
414.1161,-7.264588E-05
414.2161,-7.259221E-05
414.3161,-7.259127E-05
414.4161,-7.253382E-05
414.5161,-7.246884E-05
414.6161,-7.244813E-05
414.7161,-7.243024E-05
414.8161,-7.235301E-05
414.9161,-7.231346E-05
415.0161,-7.232287E-05
415.1161,-7.225413E-05
415.2161,-7.218068E-05
415.3161,-7.218256E-05
415.4161,-7.2127E-05
415.5161,-7.205354E-05
415.6161,-7.205165E-05
415.7162,-7.201305E-05
415.8162,-7.194806E-05
415.9162,-7.189062E-05
416.0162,-7.187932E-05
416.1162,-7.184072E-05
416.2162,-7.178609E-05
416.3162,-7.175596E-05
416.4162,-7.173711E-05
416.5162,-7.167968E-05
416.6162,-7.166931E-05
416.7162,-7.162882E-05
416.8162,-7.157326E-05
416.9162,-7.15224E-05
417.0162,-7.152052E-05
417.1162,-7.14593E-05
417.2162,-7.141598E-05
417.3163,-7.140845E-05
417.4163,-7.134253E-05
417.5163,-7.131993E-05
417.6163,-7.127756E-05
417.7163,-7.126248E-05
417.8163,-7.116926E-05
417.9163,-7.115606E-05
418.0163,-7.114195E-05
418.1163,-7.107225E-05
418.2163,-7.107414E-05
418.3163,-7.102988E-05
418.4163,-7.09536E-05
418.5163,-7.091217E-05
418.6163,-7.090274E-05
418.7163,-7.083023E-05
418.8163,-7.079915E-05
418.9164,-7.078314E-05
419.0164,-7.073606E-05
419.1164,-7.068992E-05
419.2164,-7.064471E-05
419.3164,-7.061646E-05
419.4164,-7.054582E-05
419.5164,-7.051947E-05
419.6164,-7.049969E-05
419.7164,-7.04639E-05
419.8164,-7.04526E-05
419.9164,-7.040834E-05
420.0164,-7.034618E-05
420.1164,-7.039421E-05
420.2164,-7.035748E-05
420.3164,-7.027273E-05
420.4164,-7.022941E-05
420.5164,-7.021246E-05
420.6165,-7.015878E-05
420.7165,-7.00938E-05
420.8165,-7.003635E-05
420.9165,-6.999492E-05
421.0165,-6.992428E-05
421.1165,-6.992711E-05
421.2165,-6.988473E-05
421.3165,-6.981787E-05
421.4165,-6.979716E-05
421.5165,-6.979716E-05
421.6165,-6.970581E-05
421.7165,-6.963329E-05
421.8165,-6.963235E-05
421.9165,-6.958902E-05
422.0165,-6.953911E-05
422.1165,-6.948355E-05
422.2166,-6.948073E-05
422.3166,-6.943176E-05
422.4166,-6.937997E-05
422.5166,-6.931311E-05
422.6166,-6.929992E-05
422.7166,-6.928014E-05
422.8166,-6.920574E-05
422.9166,-6.916996E-05
423.0166,-6.917278E-05
423.1166,-6.911816E-05
423.2166,-6.905507E-05
423.3166,-6.903341E-05
423.4166,-6.901269E-05
423.5166,-6.893453E-05
423.6166,-6.891098E-05
423.7166,-6.891003E-05
423.8167,-6.881398E-05
423.9167,-6.879421E-05
424.0167,-6.877915E-05
424.1167,-6.872264E-05
424.2167,-6.865107E-05
424.3167,-6.865483E-05
424.4167,-6.863412E-05
424.5167,-6.857007E-05
424.6167,-6.857383E-05
424.7167,-6.851827E-05
424.8167,-6.846648E-05
424.9167,-6.849661E-05
425.0167,-6.845048E-05
425.1167,-6.839963E-05
425.2167,-6.835724E-05
425.3167,-6.834217E-05
425.4167,-6.827155E-05
425.5168,-6.818962E-05
425.6168,-6.815948E-05
425.7168,-6.814535E-05
425.8168,-6.806719E-05
425.9168,-6.80606E-05
426.0168,-6.802576E-05
426.1168,-6.795135E-05
426.2168,-6.797961E-05
426.3168,-6.79005E-05
426.4168,-6.786378E-05
426.5168,-6.789579E-05
426.6168,-6.784306E-05
426.7168,-6.778278E-05
426.8168,-6.775171E-05
426.9168,-6.771969E-05
427.0168,-6.767166E-05
427.1169,-6.760951E-05
427.2169,-6.755583E-05
427.3169,-6.754453E-05
427.4169,-6.747484E-05
427.5169,-6.748615E-05
427.6169,-6.742305E-05
427.7169,-6.737502E-05
427.8169,-6.733734E-05
427.9169,-6.728178E-05
428.0169,-6.724129E-05
428.1169,-6.719138E-05
428.2169,-6.716125E-05
428.3169,-6.712829E-05
428.4169,-6.710098E-05
428.5169,-6.707084E-05
428.6169,-6.700492E-05
428.7169,-6.698327E-05
428.817,-6.698232E-05
428.917,-6.689851E-05
429.017,-6.685424E-05
429.117,-6.684577E-05
429.217,-6.680433E-05
429.317,-6.674218E-05
429.417,-6.671863E-05
429.517,-6.669132E-05
429.617,-6.662258E-05
429.717,-6.660751E-05
429.817,-6.658867E-05
429.917,-6.652087E-05
430.017,-6.646437E-05
430.117,-6.648697E-05
430.217,-6.646437E-05
430.317,-6.640127E-05
430.4171,-6.638902E-05
430.5171,-6.635889E-05
430.6171,-6.630992E-05
430.7171,-6.631275E-05
430.8171,-6.632122E-05
430.9171,-6.62327E-05
431.0171,-6.618373E-05
431.1171,-6.616395E-05
431.2171,-6.613005E-05
431.3171,-6.605376E-05
431.4171,-6.602929E-05
431.5171,-6.599443E-05
431.6171,-6.591722E-05
431.7171,-6.592758E-05
431.8171,-6.588897E-05
431.9171,-6.579761E-05
432.0172,-6.577973E-05
432.1172,-6.578161E-05
432.2172,-6.571945E-05
432.3172,-6.567613E-05
432.4172,-6.565071E-05
432.5172,-6.563658E-05
432.6172,-6.56008E-05
432.7172,-6.554241E-05
432.8172,-6.554712E-05
432.9172,-6.549815E-05
433.0172,-6.546048E-05
433.1172,-6.541716E-05
433.2172,-6.537102E-05
433.3172,-6.536819E-05
433.4172,-6.529662E-05
433.5172,-6.525706E-05
433.6172,-6.525706E-05
433.7173,-6.524576E-05
433.8173,-6.51497E-05
433.9173,-6.518268E-05
434.0173,-6.51111E-05
434.1173,-6.505177E-05
434.2173,-6.504141E-05
434.3173,-6.499621E-05
434.4173,-6.495194E-05
434.5173,-6.490674E-05
434.6173,-6.489449E-05
434.7173,-6.485495E-05
434.8173,-6.479279E-05
434.9173,-6.477207E-05
435.0173,-6.476642E-05
435.1173,-6.467036E-05
435.2173,-6.467695E-05
435.3174,-6.464964E-05
435.4174,-6.460444E-05
435.5174,-6.456488E-05
435.6174,-6.452911E-05
435.7174,-6.45065E-05
435.8174,-6.444529E-05
435.9174,-6.441045E-05
436.0174,-6.439444E-05
436.1174,-6.435206E-05
436.2174,-6.429085E-05
436.3174,-6.429556E-05
436.4174,-6.425977E-05
436.5174,-6.423717E-05
436.6174,-6.417785E-05
436.7174,-6.415995E-05
436.8174,-6.415336E-05
436.9174,-6.406295E-05
437.0175,-6.4046E-05
437.1175,-6.401398E-05
437.2175,-6.397913E-05
437.3175,-6.39217E-05
437.4175,-6.39085E-05
437.5175,-6.387649E-05
437.6175,-6.381999E-05
437.7175,-6.379173E-05
437.8175,-6.382563E-05
437.9175,-6.375123E-05
438.0175,-6.368625E-05
438.1175,-6.370698E-05
438.2175,-6.368343E-05
438.3175,-6.360903E-05
438.4175,-6.358643E-05
438.5175,-6.35563E-05
438.6176,-6.352617E-05
438.7176,-6.346966E-05
438.8176,-6.346118E-05
438.9176,-6.341881E-05
439.0176,-6.340656E-05
439.1176,-6.336136E-05
439.2176,-6.330485E-05
439.3176,-6.329073E-05
439.4176,-6.328037E-05
439.5176,-6.320409E-05
439.6176,-6.315418E-05
439.7176,-6.320503E-05
439.8176,-6.316266E-05
439.9176,-6.309014E-05
440.0176,-6.307695E-05
440.1176,-6.306943E-05
440.2177,-6.297996E-05
440.3177,-6.295359E-05
440.4177,-6.297337E-05
440.5177,-6.28905E-05
440.6177,-6.287071E-05
440.7177,-6.28679E-05
440.8177,-6.279821E-05
440.9177,-6.273605E-05
441.0177,-6.274547E-05
441.1177,-6.271816E-05
441.2177,-6.265978E-05
441.3177,-6.263528E-05
441.4177,-6.263905E-05
441.5177,-6.258349E-05
441.6177,-6.258819E-05
441.7177,-6.255523E-05
441.8177,-6.251004E-05
441.9178,-6.253452E-05
442.0178,-6.249591E-05
442.1178,-6.24055E-05
442.2178,-6.23895E-05
442.3178,-6.237725E-05
442.4178,-6.232263E-05
442.5178,-6.22925E-05
442.6178,-6.226801E-05
442.7178,-6.223882E-05
442.8178,-6.219644E-05
442.9178,-6.216724E-05
443.0178,-6.212015E-05
443.1178,-6.209285E-05
443.2178,-6.204482E-05
443.3178,-6.197795E-05
443.4178,-6.195347E-05
443.5179,-6.191769E-05
443.6179,-6.190168E-05
443.7179,-6.1848E-05
443.8179,-6.181692E-05
443.9179,-6.180751E-05
444.0179,-6.1751E-05
444.1179,-6.172275E-05
444.2179,-6.170297E-05
444.3179,-6.165494E-05
444.4179,-6.161162E-05
444.5179,-6.162575E-05
444.6179,-6.160974E-05
444.7179,-6.154853E-05
444.8179,-6.15457E-05
444.9179,-6.15165E-05
445.0179,-6.145718E-05
445.118,-6.143081E-05
445.218,-6.142328E-05
445.318,-6.136677E-05
445.418,-6.133004E-05
445.518,-6.134511E-05
445.618,-6.13178E-05
445.718,-6.124529E-05
445.818,-6.123399E-05
445.918,-6.11982E-05
446.018,-6.11304E-05
446.118,-6.111533E-05
446.218,-6.107766E-05
446.318,-6.103057E-05
446.418,-6.099761E-05
446.518,-6.097313E-05
446.618,-6.090909E-05
446.718,-6.091097E-05
446.8181,-6.0862E-05
446.9181,-6.079043E-05
447.0181,-6.080738E-05
447.1181,-6.077536E-05
447.2181,-6.070379E-05
447.3181,-6.069249E-05
447.4181,-6.070191E-05
447.5181,-6.062752E-05
447.6181,-6.059173E-05
447.7181,-6.058608E-05
447.8181,-6.057101E-05
447.9181,-6.048342E-05
448.0181,-6.051639E-05
448.1181,-6.048154E-05
448.2181,-6.040997E-05
448.3181,-6.042692E-05
448.4182,-6.038078E-05
448.5182,-6.03045E-05
448.6182,-6.031203E-05
448.7182,-6.024423E-05
448.8182,-6.021409E-05
448.9182,-6.019714E-05
449.0182,-6.020279E-05
449.1182,-6.013687E-05
449.2182,-6.010862E-05
449.3182,-6.009167E-05
449.4182,-6.002669E-05
449.5182,-5.997489E-05
449.6182,-5.997677E-05
449.7182,-5.999185E-05
449.8182,-5.99052E-05
449.9182,-5.988449E-05
450.0182,-5.987601E-05
450.1183,-5.983928E-05
450.2183,-5.980538E-05
450.3183,-5.976489E-05
450.4183,-5.974982E-05
450.5183,-5.972251E-05
450.6183,-5.963493E-05
450.7183,-5.962551E-05
450.8183,-5.959255E-05
450.9183,-5.955205E-05
451.0183,-5.952474E-05
451.1183,-5.950591E-05
451.2183,-5.945412E-05
451.3183,-5.942492E-05
451.4183,-5.940138E-05
451.5183,-5.937407E-05
451.6183,-5.93185E-05
451.7184,-5.930438E-05
451.8184,-5.929214E-05
451.9184,-5.924882E-05
452.0184,-5.919514E-05
452.1184,-5.920832E-05
452.2184,-5.915841E-05
452.3184,-5.908966E-05
452.4184,-5.908213E-05
452.5184,-5.906706E-05
452.6184,-5.900679E-05
452.7184,-5.896724E-05
452.8184,-5.898514E-05
452.9184,-5.892486E-05
453.0184,-5.888154E-05
453.1184,-5.889379E-05
453.2184,-5.883822E-05
453.3185,-5.878643E-05
453.4185,-5.877795E-05
453.5185,-5.87789E-05
453.6185,-5.869696E-05
453.7185,-5.86706E-05
453.8185,-5.866306E-05
453.9185,-5.862445E-05
454.0185,-5.857737E-05
454.1185,-5.859714E-05
454.2185,-5.853687E-05
454.3185,-5.850768E-05
454.4185,-5.848131E-05
454.5185,-5.842857E-05
454.6185,-5.842198E-05
454.7185,-5.842386E-05
454.8185,-5.836642E-05
454.9185,-5.831933E-05
455.0186,-5.834475E-05
455.1186,-5.828354E-05
455.2186,-5.823363E-05
455.3186,-5.822798E-05
455.4186,-5.818561E-05
455.5186,-5.814699E-05
455.6186,-5.813004E-05
455.7186,-5.810556E-05
455.8186,-5.807166E-05
455.9186,-5.806506E-05
456.0186,-5.806506E-05
456.1186,-5.803681E-05
456.2186,-5.801703E-05
456.3186,-5.806129E-05
456.4186,-5.799631E-05
456.5186,-5.790309E-05
456.6187,-5.791909E-05
456.7187,-5.785129E-05
456.8187,-5.777501E-05
456.9187,-5.778631E-05
457.0187,-5.772321E-05
457.1187,-5.76912E-05
457.2187,-5.766294E-05
457.3187,-5.765259E-05
457.4187,-5.760173E-05
457.5187,-5.75763E-05
457.6187,-5.754522E-05
457.7187,-5.750944E-05
457.8187,-5.749155E-05
457.9187,-5.747648E-05
458.0187,-5.745482E-05
458.1187,-5.737666E-05
458.2188,-5.740679E-05
458.3188,-5.734181E-05
458.4188,-5.729849E-05
458.5188,-5.734746E-05
458.6188,-5.727872E-05
458.7188,-5.72354E-05
458.8188,-5.721185E-05
458.9188,-5.719867E-05
459.0188,-5.714217E-05
459.1188,-5.710544E-05
459.2188,-5.708943E-05
459.3188,-5.706023E-05
459.4188,-5.701503E-05
459.5188,-5.699808E-05
459.6188,-5.696512E-05
459.7188,-5.691897E-05
459.8188,-5.689355E-05
459.9189,-5.687189E-05
460.0189,-5.682951E-05
460.1189,-5.679938E-05
460.2189,-5.675794E-05
460.3189,-5.672592E-05
460.4189,-5.670049E-05
460.5189,-5.668449E-05
460.6189,-5.662986E-05
460.7189,-5.664399E-05
460.8189,-5.662045E-05
460.9189,-5.658466E-05
461.0189,-5.654793E-05
461.1189,-5.656206E-05
461.2189,-5.648201E-05
461.3189,-5.645094E-05
461.4189,-5.643304E-05
461.519,-5.642362E-05
461.619,-5.634734E-05
461.719,-5.632945E-05
461.819,-5.633228E-05
461.919,-5.629837E-05
462.019,-5.623622E-05
462.119,-5.623716E-05
462.219,-5.621362E-05
462.319,-5.615899E-05
462.419,-5.615523E-05
462.519,-5.614111E-05
462.619,-5.606765E-05
462.719,-5.605258E-05
462.819,-5.604128E-05
462.919,-5.599326E-05
463.019,-5.599231E-05
463.119,-5.596971E-05
463.2191,-5.592545E-05
463.3191,-5.591038E-05
463.4191,-5.586989E-05
463.5191,-5.584352E-05
463.6191,-5.582563E-05
463.7191,-5.580679E-05
463.8191,-5.575217E-05
463.9191,-5.579738E-05
464.0191,-5.576629E-05
464.1191,-5.569096E-05
464.2191,-5.57145E-05
464.3191,-5.567965E-05
464.4191,-5.564105E-05
464.5191,-5.562503E-05
464.6191,-5.56062E-05
464.7191,-5.556006E-05
464.8192,-5.551391E-05
464.9192,-5.550072E-05
465.0192,-5.548754E-05
465.1192,-5.542256E-05
465.2192,-5.539808E-05
465.3192,-5.543951E-05
465.4192,-5.53623E-05
465.5192,-5.533781E-05
465.6192,-5.532933E-05
465.7192,-5.530673E-05
465.8192,-5.525682E-05
465.9192,-5.528601E-05
466.0192,-5.524269E-05
466.1192,-5.518431E-05
466.2192,-5.522951E-05
466.3192,-5.519184E-05
466.4193,-5.515323E-05
466.5193,-5.515888E-05
466.6193,-5.513722E-05
466.7193,-5.509672E-05
466.8193,-5.502421E-05
466.9193,-5.498748E-05
467.0193,-5.49969E-05
467.1193,-5.49225E-05
467.2193,-5.491874E-05
467.3193,-5.489613E-05
467.4193,-5.484057E-05
467.5193,-5.483869E-05
467.6193,-5.481232E-05
467.7193,-5.475111E-05
467.8193,-5.473887E-05
467.9193,-5.47125E-05
468.0193,-5.464564E-05
468.1194,-5.462586E-05
468.2194,-5.462491E-05
468.3194,-5.461173E-05
468.4194,-5.455334E-05
468.5194,-5.453546E-05
468.6194,-5.45185E-05
468.7194,-5.448177E-05
468.8194,-5.446953E-05
468.9194,-5.442998E-05
469.0194,-5.440455E-05
469.1194,-5.440079E-05
469.2194,-5.434805E-05
469.3194,-5.432168E-05
469.4194,-5.43537E-05
469.5194,-5.435558E-05
469.6194,-5.425764E-05
469.7195,-5.422468E-05
469.8195,-5.421997E-05
469.9195,-5.416159E-05
470.0195,-5.409943E-05
470.1195,-5.412297E-05
470.2195,-5.409378E-05
470.3195,-5.40288E-05
470.4195,-5.402033E-05
470.5195,-5.400243E-05
470.6195,-5.395723E-05
470.7195,-5.394687E-05
470.8195,-5.390261E-05
470.9195,-5.386212E-05
471.0195,-5.385929E-05
471.1195,-5.382068E-05
471.2195,-5.38009E-05
471.3195,-5.377265E-05
471.4196,-5.372839E-05
471.5196,-5.371144E-05
471.6196,-5.368695E-05
471.7196,-5.366341E-05
471.8196,-5.359937E-05
471.9196,-5.361726E-05
472.0196,-5.360596E-05
472.1196,-5.354852E-05
472.2196,-5.350049E-05
472.3196,-5.350331E-05
472.4196,-5.348071E-05
472.5196,-5.34308E-05
472.6196,-5.34534E-05
472.7196,-5.342233E-05
472.8196,-5.336865E-05
472.9196,-5.338466E-05
473.0197,-5.336582E-05
473.1197,-5.332533E-05
473.2197,-5.332816E-05
473.3197,-5.328389E-05
473.4197,-5.326317E-05
473.5197,-5.32368E-05
473.6197,-5.316806E-05
473.7197,-5.315864E-05
473.8197,-5.31285E-05
473.9197,-5.309554E-05
474.0197,-5.309178E-05
474.1197,-5.304658E-05
474.2197,-5.303433E-05
474.3197,-5.301361E-05
474.4197,-5.296088E-05
474.5197,-5.297218E-05
474.6198,-5.293074E-05
474.7198,-5.289778E-05
474.8198,-5.287989E-05
474.9198,-5.286482E-05
475.0198,-5.281868E-05
475.1198,-5.278101E-05
475.2198,-5.276688E-05
475.3198,-5.275087E-05
475.4198,-5.27085E-05
475.5198,-5.268401E-05
475.6198,-5.269249E-05
475.7198,-5.265482E-05
475.8198,-5.265199E-05
475.9198,-5.26454E-05
476.0198,-5.256441E-05
476.1198,-5.260396E-05
476.2198,-5.254275E-05
476.3199,-5.249284E-05
476.4199,-5.250131E-05
476.5199,-5.245234E-05
476.6199,-5.240149E-05
476.7199,-5.241091E-05
476.8199,-5.240526E-05
476.9199,-5.233745E-05
477.0199,-5.228848E-05
477.1199,-5.233463E-05
477.2199,-5.228754E-05
477.3199,-5.224611E-05
477.4199,-5.225081E-05
477.5199,-5.226494E-05
477.6199,-5.220467E-05
477.7199,-5.221126E-05
477.8199,-5.220938E-05
477.92,-5.216417E-05
478.02,-5.216512E-05
478.12,-5.212556E-05
478.22,-5.209825E-05
478.32,-5.207942E-05
478.42,-5.199372E-05
478.52,-5.198336E-05
478.62,-5.196735E-05
478.72,-5.191367E-05
478.82,-5.192215E-05
478.92,-5.1876E-05
479.02,-5.185152E-05
479.12,-5.182138E-05
479.22,-5.179784E-05
479.32,-5.180914E-05
479.42,-5.176017E-05
479.5201,-5.170931E-05
479.6201,-5.172156E-05
479.7201,-5.172533E-05
479.8201,-5.1666E-05
479.9201,-5.164434E-05
480.0201,-5.16481E-05
480.1201,-5.161232E-05
480.2201,-5.157089E-05
480.3201,-5.153698E-05
480.4201,-5.153792E-05
480.5201,-5.151343E-05
480.6201,-5.1472E-05
480.7201,-5.146635E-05
480.8201,-5.143151E-05
480.9201,-5.140137E-05
481.0201,-5.137029E-05
481.1201,-5.137689E-05
481.2202,-5.136747E-05
481.3202,-5.130344E-05
481.4202,-5.127329E-05
481.5202,-5.131944E-05
481.6202,-5.13072E-05
481.7202,-5.124975E-05
481.8202,-5.12102E-05
481.9202,-5.122715E-05
482.0202,-5.116406E-05
482.1202,-5.11245E-05
482.2202,-5.11537E-05
482.3202,-5.111038E-05
482.4202,-5.105858E-05
482.5202,-5.104728E-05
482.6202,-5.104916E-05
482.7202,-5.097947E-05
482.8203,-5.095876E-05
482.9203,-5.096629E-05
483.0203,-5.091826E-05
483.1203,-5.089095E-05
483.2203,-5.085988E-05
483.3203,-5.084386E-05
483.4203,-5.083633E-05
483.5203,-5.079019E-05
483.6203,-5.077512E-05
483.7203,-5.076476E-05
483.8203,-5.071956E-05
483.9203,-5.069601E-05
484.0203,-5.068565E-05
484.1203,-5.064893E-05
484.2203,-5.060843E-05
484.3203,-5.061408E-05
484.4203,-5.060655E-05
484.5204,-5.057265E-05
484.6204,-5.052179E-05
484.7204,-5.058301E-05
484.8204,-5.059054E-05
484.9204,-5.052085E-05
485.0204,-5.054439E-05
485.1204,-5.05039E-05
485.2204,-5.044175E-05
485.3204,-5.045116E-05
485.4204,-5.043516E-05
485.5204,-5.035511E-05
485.6204,-5.033345E-05
485.7204,-5.034757E-05
485.8204,-5.030237E-05
485.9204,-5.023174E-05
486.0204,-5.028165E-05
486.1205,-5.021479E-05
486.2205,-5.015923E-05
486.3205,-5.018654E-05
486.4205,-5.016582E-05
486.5205,-5.012627E-05
486.6205,-5.00999E-05
486.7205,-5.008954E-05
486.8205,-5.001702E-05
486.9205,-5.001137E-05
487.0205,-5.003115E-05
487.1205,-4.995299E-05
487.2205,-4.989931E-05
487.3205,-4.994169E-05
487.4205,-4.992474E-05
487.5205,-4.98541E-05
487.6205,-4.987012E-05
487.7206,-4.987671E-05
487.8206,-4.982303E-05
487.9206,-4.982303E-05
488.0206,-4.981644E-05
488.1206,-4.977406E-05
488.2206,-4.973357E-05
488.3206,-4.970625E-05
488.4206,-4.969778E-05
488.5206,-4.964975E-05
488.6206,-4.962056E-05
488.7206,-4.961868E-05
488.8206,-4.957253E-05
488.9206,-4.953863E-05
489.0206,-4.953298E-05
489.1206,-4.951979E-05
489.2206,-4.950284E-05
489.3206,-4.944539E-05
489.4207,-4.945387E-05
489.5207,-4.946235E-05
489.6207,-4.946894E-05
489.7207,-4.941714E-05
489.8207,-4.938701E-05
489.9207,-4.936252E-05
490.0207,-4.932297E-05
490.1207,-4.930978E-05
490.2207,-4.931355E-05
490.3207,-4.924763E-05
490.4207,-4.922126E-05
490.5207,-4.922314E-05
490.6207,-4.918265E-05
490.7207,-4.914875E-05
490.8207,-4.916852E-05
490.9207,-4.911296E-05
491.0208,-4.906399E-05
491.1208,-4.90687E-05
491.2208,-4.903386E-05
491.3208,-4.899242E-05
491.4208,-4.896699E-05
491.5208,-4.896794E-05
491.6208,-4.891897E-05
491.7208,-4.888884E-05
491.8208,-4.889448E-05
491.9208,-4.887282E-05
492.0208,-4.881537E-05
492.1208,-4.881726E-05
492.2208,-4.880784E-05
492.3208,-4.875322E-05
492.4208,-4.876358E-05
492.5208,-4.876829E-05
492.6208,-4.871273E-05
492.7209,-4.871273E-05
492.8209,-4.870614E-05
492.9209,-4.868542E-05
493.0209,-4.863927E-05
493.1209,-4.862703E-05
493.2209,-4.860537E-05
493.3209,-4.86016E-05
493.4209,-4.85677E-05
493.5209,-4.851873E-05
493.6209,-4.848671E-05
493.7209,-4.851402E-05
493.8209,-4.847541E-05
493.9209,-4.843209E-05
494.0209,-4.844433E-05
494.1209,-4.842079E-05
494.2209,-4.835864E-05
494.321,-4.83624E-05
494.421,-4.835204E-05
494.521,-4.830402E-05
494.621,-4.829083E-05
494.721,-4.829836E-05
494.821,-4.823621E-05
494.921,-4.822302E-05
495.021,-4.819195E-05
495.121,-4.820042E-05
495.221,-4.815334E-05
495.321,-4.812603E-05
495.421,-4.812979E-05
495.521,-4.809307E-05
495.621,-4.808271E-05
495.721,-4.806387E-05
495.821,-4.802433E-05
495.9211,-4.804316E-05
496.0211,-4.799418E-05
496.1211,-4.796122E-05
496.2211,-4.796782E-05
496.3211,-4.792073E-05
496.4211,-4.78793E-05
496.5211,-4.788777E-05
496.6211,-4.786706E-05
496.7211,-4.781432E-05
496.8211,-4.782656E-05
496.9211,-4.781808E-05
497.0211,-4.777759E-05
497.1211,-4.774086E-05
497.2211,-4.774933E-05
497.3211,-4.776818E-05
497.4211,-4.771073E-05
497.5211,-4.770037E-05
497.6212,-4.76853E-05
497.7212,-4.766835E-05
497.8212,-4.766176E-05
497.9212,-4.763633E-05
498.0212,-4.7577E-05
498.1212,-4.754969E-05
498.2212,-4.755346E-05
498.3212,-4.754875E-05
498.4212,-4.749978E-05
498.5212,-4.749036E-05
498.6212,-4.748565E-05
498.7212,-4.740278E-05
498.8212,-4.740843E-05
498.9212,-4.740655E-05
499.0212,-4.735569E-05
499.1212,-4.734157E-05
499.2213,-4.736511E-05
499.3213,-4.731803E-05
499.4213,-4.731425E-05
499.5213,-4.727753E-05
499.6213,-4.728318E-05
499.7213,-4.723703E-05
499.8213,-4.720784E-05
499.9213,-4.71843E-05
500.0213,-4.719372E-05
500.1213,-4.719937E-05
500.2213,-4.713721E-05
500.3213,-4.711744E-05
500.4213,-4.714286E-05
500.5213,-4.706846E-05
500.6213,-4.706941E-05
500.7213,-4.705905E-05
500.8214,-4.702609E-05
500.9214,-4.701008E-05
501.0214,-4.699124E-05
501.1214,-4.699218E-05
501.2214,-4.696676E-05
501.3214,-4.696864E-05
501.4214,-4.697618E-05
501.5214,-4.695734E-05
501.6214,-4.693097E-05
501.7214,-4.692532E-05
501.8214,-4.686976E-05
501.9214,-4.682926E-05
502.0214,-4.68142E-05
502.1214,-4.677088E-05
502.2214,-4.675016E-05
502.3214,-4.673415E-05
502.4214,-4.670402E-05
502.5215,-4.667294E-05
502.6215,-4.663433E-05
502.7215,-4.665128E-05
502.8215,-4.660419E-05
502.9215,-4.660607E-05
503.0215,-4.664468E-05
503.1215,-4.6575E-05
503.2215,-4.655522E-05
503.3215,-4.657123E-05
503.4215,-4.655051E-05
503.5215,-4.647988E-05
503.6215,-4.646858E-05
503.7215,-4.647518E-05
503.8215,-4.643656E-05
503.9215,-4.638665E-05
504.0215,-4.640643E-05
504.1216,-4.638759E-05
504.2216,-4.63471E-05
504.3216,-4.633674E-05
504.4216,-4.634145E-05
504.5216,-4.630943E-05
504.6216,-4.628023E-05
504.7216,-4.627176E-05
504.8216,-4.622844E-05
504.9216,-4.623127E-05
505.0216,-4.618795E-05
505.1216,-4.61644E-05
505.2216,-4.617382E-05
505.3216,-4.615593E-05
505.4216,-4.610602E-05
505.5216,-4.611543E-05
505.6216,-4.609E-05
505.7216,-4.604857E-05
505.8217,-4.601184E-05
505.9217,-4.603916E-05
506.0217,-4.602032E-05
506.1217,-4.595534E-05
506.2217,-4.600431E-05
506.3217,-4.595722E-05
506.4217,-4.590825E-05
506.5217,-4.592426E-05
506.6217,-4.590354E-05
506.7217,-4.586493E-05
506.8217,-4.584516E-05
506.9217,-4.584704E-05
507.0217,-4.581879E-05
507.1217,-4.578488E-05
507.2217,-4.578677E-05
507.3217,-4.578112E-05
507.4218,-4.572179E-05
507.5218,-4.571237E-05
507.6218,-4.572367E-05
507.7218,-4.568035E-05
507.8218,-4.565964E-05
507.9218,-4.567187E-05
508.0218,-4.565964E-05
508.1218,-4.56408E-05
508.2218,-4.559654E-05
508.3218,-4.561726E-05
508.4218,-4.557111E-05
508.5218,-4.55438E-05
508.6218,-4.55325E-05
508.7218,-4.554098E-05
508.8218,-4.548165E-05
508.9218,-4.54647E-05
509.0219,-4.548353E-05
509.1219,-4.547882E-05
509.2219,-4.543927E-05
509.3219,-4.541478E-05
509.4219,-4.545057E-05
509.5219,-4.54129E-05
509.6219,-4.536205E-05
509.7219,-4.538465E-05
509.8219,-4.532532E-05
509.9219,-4.528671E-05
510.0219,-4.527164E-05
510.1219,-4.526788E-05
510.2219,-4.522456E-05
510.3219,-4.520007E-05
510.4219,-4.520384E-05
510.5219,-4.519442E-05
510.6219,-4.512662E-05
510.722,-4.51445E-05
510.822,-4.514168E-05
510.922,-4.506634E-05
511.022,-4.508989E-05
511.122,-4.509836E-05
511.222,-4.505316E-05
511.322,-4.503903E-05
511.422,-4.503715E-05
511.522,-4.501455E-05
511.622,-4.497594E-05
511.722,-4.496181E-05
511.822,-4.496652E-05
511.922,-4.492885E-05
512.022,-4.492414E-05
512.122,-4.492038E-05
512.222,-4.48893E-05
512.322,-4.485445E-05
512.4219,-4.484598E-05
512.5219,-4.481019E-05
512.6219,-4.482055E-05
512.7219,-4.479607E-05
512.8218,-4.474145E-05
512.9218,-4.476311E-05
513.0218,-4.474333E-05
513.1218,-4.469907E-05
513.2217,-4.469436E-05
513.3217,-4.470377E-05
513.4217,-4.465387E-05
513.5217,-4.464445E-05
513.6216,-4.461997E-05
513.7216,-4.461243E-05
513.8216,-4.458418E-05
513.9216,-4.458135E-05
514.0215,-4.457853E-05
514.1215,-4.456534E-05
514.2215,-4.453426E-05
514.3215,-4.454274E-05
514.4214,-4.452861E-05
514.5214,-4.453144E-05
514.6214,-4.454086E-05
514.7214,-4.448435E-05
514.8214,-4.451449E-05
514.9213,-4.447494E-05
515.0213,-4.44448E-05
515.1213,-4.445045E-05
515.2213,-4.442503E-05
515.3212,-4.437794E-05
515.4212,-4.438641E-05
515.5212,-4.436287E-05
515.6212,-4.431107E-05
515.7211,-4.43026E-05
515.8211,-4.429883E-05
515.9211,-4.424986E-05
516.0211,-4.424139E-05
516.121,-4.42574E-05
516.221,-4.420842E-05
516.321,-4.4183E-05
516.421,-4.418017E-05
516.5209,-4.416605E-05
516.6209,-4.412273E-05
516.7209,-4.412555E-05
516.8209,-4.413027E-05
516.9208,-4.4086E-05
517.0208,-4.407282E-05
517.1208,-4.408883E-05
517.2208,-4.403986E-05
517.3207,-4.403139E-05
517.4207,-4.401443E-05
517.5207,-4.400878E-05
517.6207,-4.397017E-05
517.7206,-4.395792E-05
517.8206,-4.393721E-05
517.9206,-4.393156E-05
518.0206,-4.391084E-05
518.1205,-4.387411E-05
518.2205,-4.386187E-05
518.3205,-4.388165E-05
518.4205,-4.385434E-05
518.5204,-4.379595E-05
518.6204,-4.38242E-05
518.7204,-4.382608E-05
518.8204,-4.374981E-05
518.9203,-4.376299E-05
519.0203,-4.376111E-05
519.1203,-4.367729E-05
519.2203,-4.369895E-05
519.3203,-4.374321E-05
519.4202,-4.366599E-05
519.5202,-4.364056E-05
519.6202,-4.367352E-05
519.7202,-4.362832E-05
519.8201,-4.358594E-05
519.9201,-4.360478E-05
520.0201,-4.356805E-05
520.1201,-4.353885E-05
520.22,-4.356052E-05
520.32,-4.35511E-05
520.42,-4.349177E-05
520.52,-4.348989E-05
520.6199,-4.351249E-05
520.7199,-4.346163E-05
520.8199,-4.344657E-05
520.9199,-4.345127E-05
521.0198,-4.343432E-05
521.1198,-4.341455E-05
521.2198,-4.338912E-05
521.3198,-4.339194E-05
521.4197,-4.335051E-05
521.5197,-4.331566E-05
521.6197,-4.332414E-05
521.7197,-4.32827E-05
521.8196,-4.32893E-05
521.9196,-4.324409E-05
522.0196,-4.321396E-05
522.1196,-4.320642E-05
522.2195,-4.320454E-05
522.3195,-4.318382E-05
522.4195,-4.314238E-05
522.5195,-4.313391E-05
522.6194,-4.310095E-05
522.7194,-4.310472E-05
522.8194,-4.310189E-05
522.9194,-4.306611E-05
523.0193,-4.309624E-05
523.1193,-4.306987E-05
523.2193,-4.305104E-05
523.3193,-4.301902E-05
523.4193,-4.299454E-05
523.5192,-4.296534E-05
523.6192,-4.297005E-05
523.7192,-4.299077E-05
523.8192,-4.292579E-05
523.9191,-4.286928E-05
524.0191,-4.292485E-05
524.1191,-4.285516E-05
524.2191,-4.284292E-05
524.319,-4.286175E-05
524.419,-4.283162E-05
524.519,-4.2793E-05
524.619,-4.277511E-05
524.7189,-4.278453E-05
524.8189,-4.27139E-05
524.9189,-4.272991E-05
525.0189,-4.273273E-05
525.1188,-4.269977E-05
525.2188,-4.265363E-05
525.3188,-4.27026E-05
525.4188,-4.270825E-05
525.5187,-4.263291E-05
525.6187,-4.263291E-05
525.7187,-4.264139E-05
525.8187,-4.26056E-05
525.9186,-4.264516E-05
526.0186,-4.263385E-05
526.1186,-4.258205E-05
526.2186,-4.255381E-05
526.3185,-4.252555E-05
526.4185,-4.251331E-05
526.5185,-4.248789E-05
526.6185,-4.24568E-05
526.7184,-4.245398E-05
526.8184,-4.240689E-05
526.9184,-4.238617E-05
527.0184,-4.240407E-05
527.1183,-4.236828E-05
527.2183,-4.235981E-05
527.3183,-4.234474E-05
527.4183,-4.234003E-05
527.5182,-4.233909E-05
527.6182,-4.234474E-05
527.7182,-4.230047E-05
527.8182,-4.229012E-05
527.9182,-4.227882E-05
528.0181,-4.225904E-05
528.1181,-4.224586E-05
528.2181,-4.226658E-05
528.3181,-4.223267E-05
528.418,-4.222608E-05
528.518,-4.227599E-05
528.618,-4.22355E-05
528.718,-4.216487E-05
528.8179,-4.219312E-05
528.9179,-4.214697E-05
529.0179,-4.209047E-05
529.1179,-4.208388E-05
529.2178,-4.20641E-05
529.3178,-4.204244E-05
529.4178,-4.201796E-05
529.5178,-4.201984E-05
529.6177,-4.200383E-05
529.7177,-4.1985E-05
529.8177,-4.195392E-05
529.9177,-4.193508E-05
530.0176,-4.190401E-05
530.1176,-4.189648E-05
530.2176,-4.184845E-05
530.3176,-4.183432E-05
530.4175,-4.183432E-05
530.5175,-4.178818E-05
530.6175,-4.180607E-05
530.7175,-4.179288E-05
530.8174,-4.175427E-05
530.9174,-4.172602E-05
531.0174,-4.174297E-05
531.1174,-4.172791E-05
531.2173,-4.170531E-05
531.3173,-4.168364E-05
531.4173,-4.166952E-05
531.5173,-4.165822E-05
531.6172,-4.16375E-05
531.7172,-4.161961E-05
531.8172,-4.160454E-05
531.9172,-4.159701E-05
532.0172,-4.158759E-05
532.1171,-4.155275E-05
532.2171,-4.151884E-05
532.3171,-4.151602E-05
532.4171,-4.151037E-05
532.517,-4.149718E-05
532.617,-4.147081E-05
532.717,-4.146893E-05
532.817,-4.143879E-05
532.9169,-4.143032E-05
533.0169,-4.143879E-05
533.1169,-4.138512E-05
533.2169,-4.138135E-05
533.3168,-4.138417E-05
533.4168,-4.137664E-05
533.5168,-4.133709E-05
533.6168,-4.132296E-05
533.7167,-4.13305E-05
533.8167,-4.127305E-05
533.9167,-4.129565E-05
534.0167,-4.127587E-05
534.1166,-4.123821E-05
534.2166,-4.123821E-05
534.3166,-4.123255E-05
534.4166,-4.121278E-05
534.5165,-4.122125E-05
534.6165,-4.119959E-05
534.7165,-4.118641E-05
534.8165,-4.119112E-05
534.9164,-4.117323E-05
535.0164,-4.113744E-05
535.1164,-4.110448E-05
535.2164,-4.109601E-05
535.3163,-4.110919E-05
535.4163,-4.108753E-05
535.5163,-4.104703E-05
535.6163,-4.10847E-05
535.7162,-4.104892E-05
535.8162,-4.102349E-05
535.9162,-4.101031E-05
536.0162,-4.100654E-05
536.1161,-4.098959E-05
536.2161,-4.094156E-05
536.3161,-4.093874E-05
536.4161,-4.09425E-05
536.5161,-4.090201E-05
536.616,-4.087941E-05
536.716,-4.086999E-05
536.816,-4.088883E-05
536.916,-4.084457E-05
537.0159,-4.080125E-05
537.1159,-4.082573E-05
537.2159,-4.081914E-05
537.3159,-4.079088E-05
537.4158,-4.077205E-05
537.5158,-4.079182E-05
537.6158,-4.076169E-05
537.7158,-4.07325E-05
537.8157,-4.073532E-05
537.9157,-4.073438E-05
538.0157,-4.07259E-05
538.1157,-4.065433E-05
538.2156,-4.066657E-05
538.3156,-4.068164E-05
538.4156,-4.064397E-05
538.5156,-4.063268E-05
538.6155,-4.062326E-05
538.7155,-4.060819E-05
538.8155,-4.059595E-05
538.9155,-4.057805E-05
539.0154,-4.058464E-05
539.1154,-4.057052E-05
539.2154,-4.051778E-05
539.3154,-4.053379E-05
539.4153,-4.052437E-05
539.5153,-4.04933E-05
539.6153,-4.050931E-05
539.7153,-4.050554E-05
539.8152,-4.045845E-05
539.9152,-4.045375E-05
540.0152,-4.046693E-05
540.1152,-4.042267E-05
540.2151,-4.040006E-05
540.3151,-4.041796E-05
540.4151,-4.042643E-05
540.5151,-4.03737E-05
540.6151,-4.040571E-05
540.715,-4.038406E-05
540.815,-4.031908E-05
540.915,-4.036428E-05
541.015,-4.033602E-05
541.1149,-4.033697E-05
541.2149,-4.03511E-05
541.3149,-4.034356E-05
541.4149,-4.033414E-05
541.5148,-4.026445E-05
541.6148,-4.024844E-05
541.7148,-4.028988E-05
541.8148,-4.019948E-05
541.9147,-4.019383E-05
542.0147,-4.020136E-05
542.1147,-4.015522E-05
542.2147,-4.014486E-05
542.3146,-4.015145E-05
542.4146,-4.012885E-05
542.5146,-4.010624E-05
542.6146,-4.007611E-05
542.7145,-4.006763E-05
542.8145,-4.007423E-05
542.9145,-4.003279E-05
543.0145,-4.001395E-05
543.1144,-4.002997E-05
543.2144,-3.999418E-05
543.3144,-3.997817E-05
543.4144,-3.994991E-05
543.5143,-3.997817E-05
543.6143,-3.994238E-05
543.7143,-3.989436E-05
543.8143,-3.996122E-05
543.9142,-3.99631E-05
544.0142,-3.989436E-05
544.1142,-3.990942E-05
544.2142,-3.992449E-05
544.3141,-3.988871E-05
544.4141,-3.984821E-05
544.5141,-3.986328E-05
544.6141,-3.983314E-05
544.7141,-3.981242E-05
544.814,-3.981902E-05
544.914,-3.978605E-05
545.014,-3.975969E-05
545.114,-3.976252E-05
545.2139,-3.975592E-05
545.3139,-3.971448E-05
545.4139,-3.972014E-05
545.5139,-3.969377E-05
545.6138,-3.966457E-05
545.7138,-3.968623E-05
545.8138,-3.965798E-05
545.9138,-3.962879E-05
546.0137,-3.963727E-05
546.1137,-3.963632E-05
546.2137,-3.959017E-05
546.3137,-3.959206E-05
546.4136,-3.9593E-05
546.5136,-3.957511E-05
546.6136,-3.954686E-05
546.7136,-3.955533E-05
546.8135,-3.956757E-05
546.9135,-3.950353E-05
547.0135,-3.954498E-05
547.1135,-3.951295E-05
547.2134,-3.946116E-05
547.3134,-3.946775E-05
547.4134,-3.948376E-05
547.5134,-3.945457E-05
547.6133,-3.943291E-05
547.7133,-3.944232E-05
547.8133,-3.941878E-05
547.9133,-3.938959E-05
548.0132,-3.942066E-05
548.1132,-3.940183E-05
548.2132,-3.93604E-05
548.3132,-3.935475E-05
548.4131,-3.934156E-05
548.5131,-3.934909E-05
548.6131,-3.933873E-05
548.7131,-3.933026E-05
548.813,-3.932084E-05
548.913,-3.930012E-05
549.013,-3.928882E-05
549.113,-3.924738E-05
549.213,-3.926057E-05
549.3129,-3.92342E-05
549.4129,-3.922478E-05
549.5129,-3.92634E-05
549.6129,-3.926245E-05
549.7128,-3.919936E-05
549.8128,-3.914379E-05
549.9128,-3.914285E-05
550.0128,-3.913156E-05
550.1127,-3.91485E-05
550.2127,-3.914944E-05
550.3127,-3.916169E-05
550.4127,-3.914944E-05
550.5126,-3.917016E-05
550.6126,-3.913438E-05
550.7126,-3.91033E-05
550.8126,-3.909859E-05
550.9125,-3.906281E-05
551.0125,-3.904774E-05
551.1125,-3.901101E-05
551.2125,-3.897994E-05
551.3124,-3.900065E-05
551.4124,-3.897617E-05
551.5124,-3.895074E-05
551.6124,-3.896769E-05
551.7123,-3.891307E-05
551.8123,-3.89159E-05
551.9123,-3.891872E-05
552.0123,-3.887258E-05
552.1122,-3.886221E-05
552.2122,-3.886504E-05
552.3122,-3.885563E-05
552.4122,-3.882267E-05
552.5121,-3.881702E-05
552.6121,-3.880854E-05
552.7121,-3.878405E-05
552.8121,-3.877087E-05
552.912,-3.877746E-05
553.012,-3.877181E-05
553.112,-3.874827E-05
553.212,-3.870024E-05
553.312,-3.87219E-05
553.4119,-3.872755E-05
553.5119,-3.865504E-05
553.6119,-3.863526E-05
553.7119,-3.869553E-05
553.8118,-3.864374E-05
553.9118,-3.860701E-05
554.0118,-3.863338E-05
554.1118,-3.863526E-05
554.2117,-3.860136E-05
554.3117,-3.856745E-05
554.4117,-3.856369E-05
554.5117,-3.855898E-05
554.6116,-3.855898E-05
554.7116,-3.853261E-05
554.8116,-3.850813E-05
554.9116,-3.851566E-05
555.0115,-3.851849E-05
555.1115,-3.847705E-05
555.2115,-3.847423E-05
555.3115,-3.845351E-05
555.4114,-3.843561E-05
555.5114,-3.844315E-05
555.6114,-3.843091E-05
555.7114,-3.83857E-05
555.8113,-3.838853E-05
555.9113,-3.84196E-05
556.0113,-3.836592E-05
556.1113,-3.835086E-05
556.2112,-3.83518E-05
556.3112,-3.835745E-05
556.4112,-3.832072E-05
556.5112,-3.832825E-05
556.6111,-3.830283E-05
556.7111,-3.829812E-05
556.8111,-3.828305E-05
556.9111,-3.827269E-05
557.011,-3.825198E-05
557.111,-3.826045E-05
557.211,-3.822937E-05
557.311,-3.820772E-05
557.4109,-3.82143E-05
557.5109,-3.821336E-05
557.6109,-3.817381E-05
557.7109,-3.815215E-05
557.8109,-3.815121E-05
557.9108,-3.815403E-05
558.0108,-3.812107E-05
558.1108,-3.813237E-05
558.2108,-3.814085E-05
558.3107,-3.809377E-05
558.4107,-3.810318E-05
558.5107,-3.810789E-05
558.6107,-3.80674E-05
558.7106,-3.80674E-05
558.8106,-3.806458E-05
558.9106,-3.804856E-05
559.0106,-3.802879E-05
559.1105,-3.80269E-05
559.2105,-3.797511E-05
559.3105,-3.801089E-05
559.4105,-3.797793E-05
559.5104,-3.792708E-05
559.6104,-3.796286E-05
559.7104,-3.795062E-05
559.8104,-3.791013E-05
559.9103,-3.795345E-05
560.0103,-3.793461E-05
560.1103,-3.788093E-05
560.2103,-3.788941E-05
560.3102,-3.791484E-05
560.4102,-3.787999E-05
560.5102,-3.782161E-05
560.6102,-3.787246E-05
560.7101,-3.785174E-05
560.8101,-3.776981E-05
560.9101,-3.782631E-05
561.0101,-3.783384E-05
561.11,-3.778205E-05
561.21,-3.778864E-05
561.31,-3.778111E-05
561.41,-3.774533E-05
561.5099,-3.772178E-05
561.6099,-3.771895E-05
561.7099,-3.773873E-05
561.8099,-3.77133E-05
561.9099,-3.772649E-05
562.0098,-3.771707E-05
562.1098,-3.766904E-05
562.2098,-3.769353E-05
562.3098,-3.765398E-05
562.4097,-3.762478E-05
562.5097,-3.764833E-05
562.6097,-3.761725E-05
562.7097,-3.757769E-05
562.8096,-3.761537E-05
562.9096,-3.763703E-05
563.0096,-3.754191E-05
563.1096,-3.759559E-05
563.2095,-3.755698E-05
563.3095,-3.751083E-05
563.4095,-3.756451E-05
563.5095,-3.756734E-05
563.6094,-3.750801E-05
563.7094,-3.750047E-05
563.8094,-3.753249E-05
563.9094,-3.747034E-05
564.0093,-3.744868E-05
564.1093,-3.74581E-05
564.2093,-3.746657E-05
564.3093,-3.745245E-05
564.4092,-3.743455E-05
564.5092,-3.742514E-05
564.6092,-3.73545E-05
564.7092,-3.737428E-05
564.8091,-3.738746E-05
564.9091,-3.736204E-05
565.0091,-3.735733E-05
565.1091,-3.733662E-05
565.209,-3.731213E-05
565.309,-3.730554E-05
565.409,-3.73206E-05
565.509,-3.73206E-05
565.6089,-3.729988E-05
565.7089,-3.733756E-05
565.8089,-3.731401E-05
565.9089,-3.727446E-05
566.0089,-3.733662E-05
566.1088,-3.726599E-05
566.2088,-3.72302E-05
566.3088,-3.720289E-05
566.4088,-3.718782E-05
566.5087,-3.714073E-05
566.6087,-3.712378E-05
566.7087,-3.71445E-05
566.8087,-3.712001E-05
566.9086,-3.706822E-05
567.0086,-3.712755E-05
567.1086,-3.707763E-05
567.2086,-3.704938E-05
567.3085,-3.706634E-05
567.4085,-3.708046E-05
567.5085,-3.702584E-05
567.6085,-3.701925E-05
567.7084,-3.702961E-05
567.8084,-3.699665E-05
567.9084,-3.697311E-05
568.0084,-3.69571E-05
568.1083,-3.694862E-05
568.2083,-3.691189E-05
568.3083,-3.691472E-05
568.4083,-3.692602E-05
568.5082,-3.690059E-05
568.6082,-3.690154E-05
568.7082,-3.688835E-05
568.8082,-3.684315E-05
568.9081,-3.691472E-05
569.0081,-3.686669E-05
569.1081,-3.685162E-05
569.2081,-3.686951E-05
569.308,-3.683185E-05
569.408,-3.680642E-05
569.508,-3.681301E-05
569.608,-3.681301E-05
569.7079,-3.676404E-05
569.8079,-3.676592E-05
569.9079,-3.676781E-05
570.0079,-3.674332E-05
570.1078,-3.670659E-05
570.2078,-3.672731E-05
570.3078,-3.672072E-05
570.4078,-3.66887E-05
570.5078,-3.673202E-05
570.6077,-3.670848E-05
570.7077,-3.668965E-05
570.8077,-3.672072E-05
570.9077,-3.668399E-05
571.0076,-3.66548E-05
571.1076,-3.661807E-05
571.2076,-3.662749E-05
571.3076,-3.662278E-05
571.4075,-3.65578E-05
571.5075,-3.661336E-05
571.6075,-3.660771E-05
571.7075,-3.65352E-05
571.8074,-3.656345E-05
571.9074,-3.656628E-05
572.0074,-3.651825E-05
572.1074,-3.651165E-05
572.2073,-3.652107E-05
572.3073,-3.650224E-05
572.4073,-3.648623E-05
572.5073,-3.646457E-05
572.6072,-3.644291E-05
572.7072,-3.646551E-05
572.8072,-3.645233E-05
572.9072,-3.640713E-05
573.0071,-3.642408E-05
573.1071,-3.644761E-05
573.2071,-3.638735E-05
573.3071,-3.637134E-05
573.407,-3.642784E-05
573.507,-3.637699E-05
573.607,-3.632614E-05
573.707,-3.636569E-05
573.8069,-3.634968E-05
573.9069,-3.633273E-05
574.0069,-3.631107E-05
574.1069,-3.63186E-05
574.2068,-3.628941E-05
574.3068,-3.628753E-05
574.4068,-3.627999E-05
574.5068,-3.627152E-05
574.6068,-3.62781E-05
574.7067,-3.62621E-05
574.8067,-3.626304E-05
574.9067,-3.622914E-05
575.0067,-3.621784E-05
575.1066,-3.620183E-05
575.2066,-3.623102E-05
575.3066,-3.621972E-05
575.4066,-3.616981E-05
575.5065,-3.617828E-05
575.6065,-3.619429E-05
575.7065,-3.61877E-05
575.8065,-3.614815E-05
575.9064,-3.620748E-05
576.0064,-3.616416E-05
576.1064,-3.614815E-05
576.2064,-3.616887E-05
576.3063,-3.614532E-05
576.4063,-3.612932E-05
576.5063,-3.612084E-05
576.6063,-3.615568E-05
576.7062,-3.613685E-05
576.8062,-3.609541E-05
576.9062,-3.612084E-05
577.0062,-3.609824E-05
577.1061,-3.602949E-05
577.2061,-3.604268E-05
577.3061,-3.5989E-05
577.4061,-3.599747E-05
577.506,-3.59824E-05
577.606,-3.594944E-05
577.706,-3.595698E-05
577.806,-3.593437E-05
577.9059,-3.592308E-05
578.0059,-3.590801E-05
578.1059,-3.590424E-05
578.2059,-3.591083E-05
578.3058,-3.5892E-05
578.4058,-3.584114E-05
578.5058,-3.59259E-05
578.6058,-3.587128E-05
578.7057,-3.583079E-05
578.8057,-3.586563E-05
578.9057,-3.583173E-05
579.0057,-3.582607E-05
579.1057,-3.579029E-05
579.2056,-3.581477E-05
579.3056,-3.576675E-05
579.4056,-3.576675E-05
579.5056,-3.575921E-05
579.6055,-3.576015E-05
579.7055,-3.573661E-05
579.8055,-3.572155E-05
579.9055,-3.57206E-05
580.0054,-3.569329E-05
580.1054,-3.573096E-05
580.2054,-3.570836E-05
580.3054,-3.569894E-05
580.4053,-3.57498E-05
580.5053,-3.570459E-05
580.6053,-3.568293E-05
580.7053,-3.567823E-05
580.8052,-3.566127E-05
580.9052,-3.562361E-05
581.0052,-3.562549E-05
581.1052,-3.561607E-05
581.2051,-3.559723E-05
581.3051,-3.559441E-05
581.4051,-3.558405E-05
581.5051,-3.559723E-05
581.605,-3.556992E-05
581.705,-3.556616E-05
581.805,-3.556428E-05
581.905,-3.552661E-05
582.0049,-3.552284E-05
582.1049,-3.552001E-05
582.2049,-3.54993E-05
582.3049,-3.548328E-05
582.4048,-3.547575E-05
582.5048,-3.548046E-05
582.6048,-3.547669E-05
582.7048,-3.545032E-05
582.8047,-3.544938E-05
582.9047,-3.54023E-05
583.0047,-3.542113E-05
583.1047,-3.540324E-05
583.2047,-3.537216E-05
583.3046,-3.544185E-05
583.4046,-3.540324E-05
583.5046,-3.536086E-05
583.6046,-3.543526E-05
583.7045,-3.536368E-05
583.8045,-3.53279E-05
583.9045,-3.535238E-05
584.0045,-3.533167E-05
584.1044,-3.528552E-05
584.2044,-3.530247E-05
584.3044,-3.527893E-05
584.4044,-3.526104E-05
584.5043,-3.525444E-05
584.6043,-3.525162E-05
584.7043,-3.522431E-05
584.8043,-3.523561E-05
584.9042,-3.521678E-05
585.0042,-3.521866E-05
585.1042,-3.519888E-05
585.2042,-3.523655E-05
585.3041,-3.519983E-05
585.4041,-3.518193E-05
585.5041,-3.520077E-05
585.6041,-3.515839E-05
585.704,-3.513202E-05
585.804,-3.512826E-05
585.904,-3.513767E-05
586.004,-3.511978E-05
586.1039,-3.510094E-05
586.2039,-3.511224E-05
586.3039,-3.509529E-05
586.4039,-3.508588E-05
586.5038,-3.507646E-05
586.6038,-3.506892E-05
586.7038,-3.506986E-05
586.8038,-3.505857E-05
586.9037,-3.503597E-05
587.0037,-3.502278E-05
587.1037,-3.503408E-05
587.2037,-3.498605E-05
587.3036,-3.499641E-05
587.4036,-3.500677E-05
587.5036,-3.505009E-05
587.6036,-3.499359E-05
587.7036,-3.50209E-05
587.8035,-3.499359E-05
587.9035,-3.497193E-05
588.0035,-3.497852E-05
588.1035,-3.497004E-05
588.2034,-3.493896E-05
588.3034,-3.493143E-05
588.4034,-3.496533E-05
588.5034,-3.494744E-05
588.6033,-3.488434E-05
588.7033,-3.494461E-05
588.8033,-3.488246E-05
588.9033,-3.485421E-05
589.0032,-3.486362E-05
589.1032,-3.489094E-05
589.2032,-3.483066E-05
589.3032,-3.48269E-05
589.4031,-3.484667E-05
589.5031,-3.483066E-05
589.6031,-3.480901E-05
589.7031,-3.480335E-05
589.803,-3.4793E-05
589.903,-3.476475E-05
590.003,-3.477887E-05
590.103,-3.478829E-05
590.2029,-3.478075E-05
590.3029,-3.477322E-05
590.4029,-3.479582E-05
590.5029,-3.478358E-05
590.6028,-3.487022E-05
590.7028,-3.48156E-05
590.8028,-3.479582E-05
590.9028,-3.488246E-05
591.0027,-3.481089E-05
591.1027,-3.475344E-05
591.2027,-3.476004E-05
591.3027,-3.474873E-05
591.4026,-3.466681E-05
591.5026,-3.464797E-05
591.6026,-3.465362E-05
591.7026,-3.462443E-05
591.8026,-3.460089E-05
591.9025,-3.462443E-05
592.0025,-3.46216E-05
592.1025,-3.458393E-05
592.2025,-3.462631E-05
592.3024,-3.458299E-05
592.4024,-3.456416E-05
592.5024,-3.455663E-05
592.6024,-3.454532E-05
592.7023,-3.45246E-05
592.8023,-3.449164E-05
592.9023,-3.4502E-05
593.0023,-3.450671E-05
593.1022,-3.444738E-05
593.2022,-3.450388E-05
593.3022,-3.447751E-05
593.4022,-3.441819E-05
593.5021,-3.445303E-05
593.6021,-3.445021E-05
593.7021,-3.440877E-05
593.8021,-3.440218E-05
593.902,-3.44003E-05
594.002,-3.43937E-05
594.102,-3.434756E-05
594.202,-3.437298E-05
594.3019,-3.437675E-05
594.4019,-3.432779E-05
594.5019,-3.433814E-05
594.6019,-3.434191E-05
594.7018,-3.432119E-05
594.8018,-3.432401E-05
594.9018,-3.42967E-05
595.0018,-3.427881E-05
595.1017,-3.431648E-05
595.2017,-3.432119E-05
595.3017,-3.429858E-05
595.4017,-3.428729E-05
595.5016,-3.428446E-05
595.6016,-3.427222E-05
595.7016,-3.428446E-05
595.8016,-3.431742E-05
595.9016,-3.429294E-05
596.0015,-3.429105E-05
596.1015,-3.427505E-05
596.2015,-3.425432E-05
596.3015,-3.42402E-05
596.4014,-3.423173E-05
596.5014,-3.420253E-05
596.6014,-3.418935E-05
596.7014,-3.415827E-05
596.8013,-3.41545E-05
596.9013,-3.412813E-05
597.0013,-3.413096E-05
597.1013,-3.414132E-05
597.2012,-3.409235E-05
597.3012,-3.407634E-05
597.4012,-3.408576E-05
597.5012,-3.405468E-05
597.6011,-3.404903E-05
597.7011,-3.406316E-05
597.8011,-3.403585E-05
597.9011,-3.40236E-05
598.001,-3.404055E-05
598.101,-3.401701E-05
598.201,-3.399441E-05
598.301,-3.400759E-05
598.4009,-3.400948E-05
598.5009,-3.400006E-05
598.6009,-3.396145E-05
598.7009,-3.397463E-05
598.8008,-3.394826E-05
598.9008,-3.394921E-05
599.0008,-3.394544E-05
599.1008,-3.392472E-05
599.2007,-3.39445E-05
599.3007,-3.394638E-05
599.4007,-3.388423E-05
599.5007,-3.388517E-05
599.6006,-3.390966E-05
599.7006,-3.391154E-05
599.8006,-3.386916E-05
599.9006,-3.391436E-05
600.0005,-3.391907E-05
