EXPID. 0397
[电化学]: i-t : @ 0(V) X 600(sec)
起始电位 (V),0
静置时间 (秒),0
运行时间 (秒),600
记录间隔,0.1
电解液 信息:
HNO3,0.4
0.1,-0.008352995
0.2,0.0008468531
0.3,-0.002533669
0.4,-0.004737339
0.5,-0.004459398
0.6,-0.004070593
0.7,-0.003752979
0.8000001,-0.003503189
0.9000001,-0.00328419
1,-0.003086581
1.1,-0.00289803
1.2,-0.002710009
1.3,-0.002539516
1.4,-0.002388
1.5,-0.002254857
1.6,-0.002141327
1.7,-0.002043915
1.8,-0.001957079
1.9,-0.001881416
2,-0.001813953
2.1,-0.001754284
2.2,-0.001698871
2.3,-0.001648907
2.4,-0.001604225
2.5,-0.001562317
2.6,-0.001523551
2.7,-0.001488209
2.799999,-0.001455732
2.899999,-0.001424747
2.999999,-0.001395647
3.099999,-0.001369514
3.199999,-0.001343932
3.299999,-0.001319925
3.399999,-0.001297563
3.499999,-0.001276342
3.599999,-0.001256061
3.699999,-0.001236909
3.799999,-0.001219354
3.899998,-0.001202417
3.999998,-0.00118594
4.099998,-0.00117125
4.199998,-0.001156131
4.299998,-0.001141615
4.399998,-0.001128842
4.499998,-0.001116077
4.599998,-0.00110514
4.699998,-0.001093866
4.799998,-0.001082653
4.899998,-0.001072674
4.999998,-0.00106235
5.099998,-0.001052203
5.199997,-0.001042241
5.299997,-0.001032704
5.399997,-0.001023088
5.499997,-0.001013898
5.599997,-0.001004929
5.699997,-0.0009967415
5.799997,-0.0009881378
5.899997,-0.0009802132
5.999997,-0.0009725616
6.099997,-0.000964862
6.199996,-0.0009573347
6.299996,-0.0009501041
6.399996,-0.0009427981
6.499996,-0.0009357125
6.599996,-0.0009289895
6.699996,-0.000922486
6.799996,-0.0009160219
6.899996,-0.0009101511
6.999996,-0.0009039847
7.099996,-0.0008982928
7.199996,-0.0008926584
7.299995,-0.0008872737
7.399995,-0.000881998
7.499995,-0.0008767178
7.599995,-0.0008719159
7.699995,-0.0008673843
7.799995,-0.0008634488
7.899995,-0.0008596828
7.999995,-0.0008550561
8.099995,-0.0008509633
8.199995,-0.0008467471
8.299995,-0.0008420226
8.399996,-0.0008375512
8.499996,-0.0008331505
8.599997,-0.0008287959
8.699997,-0.0008245138
8.799997,-0.0008202817
8.899998,-0.0008162897
8.999998,-0.0008123938
9.099998,-0.0008084893
9.199999,-0.0008047752
9.299999,-0.0008009772
9.4,-0.0007973072
9.5,-0.0007937748
9.6,-0.0007902113
9.700001,-0.0007868493
9.800001,-0.0007836964
9.900002,-0.0007804201
10,-0.0007777946
10.1,-0.0007752415
10.2,-0.0007719003
10.3,-0.0007690676
10.4,-0.0007661576
10.5,-0.0007631356
10.6,-0.0007605147
10.7,-0.0007577762
10.8,-0.0007549255
10.90001,-0.0007521833
11.00001,-0.0007495727
11.10001,-0.0007468869
11.20001,-0.0007438997
11.30001,-0.0007414804
11.40001,-0.0007386025
11.50001,-0.0007358979
11.60001,-0.0007336471
11.70001,-0.0007310461
11.80001,-0.0007282802
11.90001,-0.0007257959
12.00001,-0.0007232749
12.10001,-0.0007207605
12.20001,-0.0007183797
12.30001,-0.0007159492
12.40001,-0.0007135289
12.50001,-0.0007112744
12.60001,-0.0007091763
12.70001,-0.000706934
12.80001,-0.0007048358
12.90001,-0.0007028176
13.00001,-0.000700551
13.10001,-0.0006984018
13.20001,-0.0006964281
13.30001,-0.0006941876
13.40001,-0.000692082
13.50002,-0.0006901664
13.60002,-0.0006881379
13.70002,-0.0006860991
13.80002,-0.000684212
13.90002,-0.0006821909
14.00002,-0.0006803338
14.10002,-0.0006784852
14.20002,-0.0006765622
14.30002,-0.0006746938
14.40002,-0.0006729196
14.50002,-0.0006710992
14.60002,-0.000669324
14.70002,-0.0006675904
14.80002,-0.0006659536
14.90002,-0.0006642152
15.00002,-0.000662488
15.10002,-0.000660727
15.20002,-0.0006590338
15.30002,-0.0006572332
15.40002,-0.0006557527
15.50002,-0.0006539786
15.60002,-0.0006523098
15.70002,-0.0006507945
15.80002,-0.0006492322
15.90002,-0.0006475277
16.00002,-0.00064615
16.10003,-0.0006446412
16.20003,-0.0006430667
16.30003,-0.0006416033
16.40003,-0.0006403027
16.50003,-0.0006389127
16.60003,-0.0006372459
16.70003,-0.0006358625
16.80003,-0.0006344583
16.90003,-0.0006328319
17.00003,-0.0006315691
17.10003,-0.0006301914
17.20003,-0.0006287222
17.30003,-0.0006274491
17.40003,-0.000625978
17.50003,-0.000624539
17.60003,-0.0006232762
17.70003,-0.0006220387
17.80003,-0.0006206619
17.90003,-0.0006193332
18.00003,-0.0006181654
18.10003,-0.0006169516
18.20003,-0.0006156717
18.30003,-0.0006144974
18.40003,-0.00061342
18.50003,-0.0006121638
18.60003,-0.0006109735
18.70004,-0.0006100166
18.80004,-0.0006086408
18.90004,-0.0006072818
19.00004,-0.0006058665
19.10004,-0.0006045254
19.20004,-0.0006032616
19.30004,-0.0006020156
19.40004,-0.000600749
19.50004,-0.0005994956
19.60004,-0.0005983044
19.70004,-0.0005971704
19.80004,-0.0005959359
19.90004,-0.0005947729
20.00004,-0.0005935175
20.10004,-0.0005923997
20.20004,-0.0005912234
20.30004,-0.0005901376
20.40004,-0.0005889406
20.50004,-0.0005878003
20.60004,-0.0005867126
20.70004,-0.0005855816
20.80004,-0.0005844561
20.90004,-0.0005833317
21.00004,-0.0005821612
21.10004,-0.0005811319
21.20004,-0.0005800272
21.30005,-0.0005788981
21.40005,-0.0005778913
21.50005,-0.0005768997
21.60005,-0.0005759034
21.70005,-0.000574892
21.80005,-0.0005738768
21.90005,-0.0005728465
22.00005,-0.0005717833
22.10005,-0.0005709291
22.20005,-0.0005699469
22.30005,-0.0005688639
22.40005,-0.0005681718
22.50005,-0.0005670718
22.60005,-0.000565985
22.70005,-0.0005653042
22.80005,-0.0005641769
22.90005,-0.0005630487
23.00005,-0.000562092
23.10005,-0.0005611615
23.20005,-0.0005601482
23.30005,-0.0005592564
23.40005,-0.0005585068
23.50005,-0.0005575726
23.60005,-0.0005565348
23.70005,-0.0005556599
23.80005,-0.0005547446
23.90005,-0.0005537039
24.00006,-0.0005528018
24.10006,-0.0005518657
24.20006,-0.0005508458
24.30006,-0.0005499916
24.40006,-0.0005491083
24.50006,-0.0005480602
24.60006,-0.0005471937
24.70006,-0.0005463471
24.80006,-0.0005453358
24.90006,-0.0005445061
25.00006,-0.0005436679
25.10006,-0.0005427629
25.20006,-0.0005418268
25.30006,-0.0005410697
25.40006,-0.0005401185
25.50006,-0.000539287
25.60006,-0.000538544
25.70006,-0.000537702
25.80006,-0.0005367829
25.90006,-0.0005359947
26.00006,-0.0005352695
26.10006,-0.0005344239
26.20006,-0.0005336205
26.30006,-0.0005328257
26.40006,-0.0005320431
26.50006,-0.0005312577
26.60007,-0.0005304695
26.70007,-0.0005296606
26.80007,-0.0005288572
26.90007,-0.0005280182
27.00007,-0.000527231
27.10007,-0.0005265811
27.20007,-0.0005257194
27.30007,-0.0005249321
27.40007,-0.0005242033
27.50007,-0.0005233726
27.60007,-0.0005225957
27.70007,-0.0005219252
27.80007,-0.0005210805
27.90007,-0.0005203205
28.00007,-0.0005195341
28.10007,-0.0005187826
28.20007,-0.0005180189
28.30007,-0.0005172825
28.40007,-0.0005165649
28.50007,-0.0005157795
28.60007,-0.000515044
28.70007,-0.000514332
28.80007,-0.0005135758
28.90007,-0.0005128121
29.00007,-0.0005121425
29.10007,-0.0005114164
29.20008,-0.0005106782
29.30008,-0.0005099953
29.40008,-0.0005093032
29.50008,-0.0005085677
29.60008,-0.0005078934
29.70008,-0.0005071993
29.80008,-0.0005064893
29.90008,-0.000505767
30.00008,-0.0005051294
30.10008,-0.0005045314
30.20008,-0.0005037083
30.30008,-0.0005030868
30.40008,-0.0005024596
30.50008,-0.0005016742
30.60008,-0.0005011525
30.70008,-0.0005004923
30.80008,-0.0004997568
30.90008,-0.0004990873
31.00008,-0.0004984139
31.10008,-0.0004977331
31.20008,-0.0004970776
31.30008,-0.000496408
31.40008,-0.0004958157
31.50008,-0.0004952375
31.60008,-0.000494647
31.70008,-0.0004941064
31.80009,-0.0004933616
31.90009,-0.0004928323
32.00008,-0.0004922645
32.10008,-0.0004916533
32.20008,-0.0004912737
32.30008,-0.0004906145
32.40008,-0.000489847
32.50008,-0.0004894204
32.60007,-0.0004887395
32.70007,-0.000488022
32.80007,-0.0004874051
32.90007,-0.0004867704
33.00007,-0.0004861385
33.10007,-0.0004855188
33.20007,-0.0004849265
33.30006,-0.0004842682
33.40006,-0.0004836193
33.50006,-0.0004831447
33.60006,-0.0004825034
33.70006,-0.0004818037
33.80006,-0.000481216
33.90005,-0.0004805879
34.00005,-0.0004799513
34.10005,-0.0004793514
34.20005,-0.000478825
34.30005,-0.0004781799
34.40005,-0.0004776281
34.50005,-0.0004770997
34.60004,-0.0004765309
34.70004,-0.0004760431
34.80004,-0.0004755515
34.90004,-0.0004748801
35.00004,-0.0004743094
35.10004,-0.0004738291
35.20004,-0.0004732141
35.30003,-0.0004725709
35.40003,-0.0004720643
35.50003,-0.0004714899
35.60003,-0.0004708344
35.70003,-0.0004703645
35.80003,-0.000469775
35.90002,-0.0004691364
36.00002,-0.0004686129
36.10002,-0.0004680469
36.20002,-0.000467479
36.30002,-0.0004669337
36.40002,-0.0004663932
36.50002,-0.000465879
36.60001,-0.0004653583
36.70001,-0.0004648167
36.80001,-0.0004643346
36.90001,-0.0004637224
37.00001,-0.0004632695
37.10001,-0.0004628099
37.2,-0.0004623908
37.3,-0.0004621752
37.4,-0.0004617194
37.5,-0.0004614303
37.6,-0.0004611656
37.7,-0.0004606647
37.8,-0.0004600657
37.89999,-0.0004595308
37.99999,-0.0004588405
38.09999,-0.0004584035
38.19999,-0.0004578611
38.29999,-0.0004573224
38.39999,-0.0004567941
38.49998,-0.0004561914
38.59998,-0.0004557036
38.69998,-0.0004551433
38.79998,-0.0004545085
38.89998,-0.0004540678
38.99998,-0.0004535207
39.09998,-0.0004529716
39.19997,-0.0004526053
39.29997,-0.0004521928
39.39997,-0.0004517144
39.49997,-0.000451188
39.59997,-0.0004507049
39.69997,-0.0004501511
39.79996,-0.0004496869
39.89996,-0.0004491953
39.99996,-0.0004486529
40.09996,-0.0004481726
40.19996,-0.0004476716
40.29996,-0.0004471179
40.39996,-0.0004466423
40.49995,-0.0004461902
40.59995,-0.0004456798
40.69995,-0.0004451298
40.79995,-0.0004447249
40.89995,-0.0004441881
40.99995,-0.0004436165
41.09995,-0.0004432134
41.19994,-0.00044272
41.29994,-0.0004421832
41.39994,-0.0004418422
41.49994,-0.0004414157
41.59994,-0.0004408704
41.69994,-0.000440538
41.79993,-0.0004401151
41.89993,-0.0004396235
41.99993,-0.0004392205
42.09993,-0.0004388664
42.19993,-0.0004383833
42.29993,-0.0004380282
42.39993,-0.0004376553
42.49992,-0.0004370319
42.59992,-0.0004365996
42.69992,-0.0004361269
42.79992,-0.0004355976
42.89992,-0.0004351287
42.99992,-0.0004346936
43.09991,-0.0004342632
43.19991,-0.0004337744
43.29991,-0.0004334429
43.39991,-0.0004329806
43.49991,-0.0004324645
43.59991,-0.0004320548
43.69991,-0.0004316198
43.7999,-0.0004311941
43.8999,-0.0004307703
43.9999,-0.0004302674
44.0999,-0.0004298484
44.1999,-0.000429466
44.2999,-0.0004289678
44.39989,-0.0004285309
44.49989,-0.0004280977
44.59989,-0.0004276664
44.69989,-0.0004271833
44.79989,-0.0004267858
44.89989,-0.0004263668
44.99989,-0.00042591
45.09988,-0.0004254656
45.19988,-0.0004251124
45.29988,-0.0004247442
45.39988,-0.0004243298
45.49988,-0.0004240143
45.59988,-0.0004236631
45.69987,-0.0004232883
45.79987,-0.0004229257
45.89987,-0.0004224115
45.99987,-0.0004219567
46.09987,-0.0004216073
46.19987,-0.0004211543
46.29987,-0.0004207004
46.39986,-0.0004202418
46.49986,-0.0004198349
46.59986,-0.0004194733
46.69986,-0.0004191107
46.79986,-0.0004187529
46.89986,-0.000418363
46.99986,-0.0004178714
47.09985,-0.0004175286
47.19985,-0.0004171029
47.29985,-0.0004166877
47.39985,-0.0004164174
47.49985,-0.0004159653
47.59985,-0.000415487
47.69984,-0.000415244
47.79984,-0.0004147675
47.89984,-0.0004142768
47.99984,-0.0004139369
48.09984,-0.0004135319
48.19984,-0.0004131232
48.29984,-0.0004127371
48.39983,-0.0004124028
48.49983,-0.0004119865
48.59983,-0.0004115345
48.69983,-0.0004111814
48.79983,-0.0004107906
48.89983,-0.0004103489
48.99982,-0.000410008
49.09982,-0.0004095955
49.19982,-0.0004092621
49.29982,-0.00040894
49.39982,-0.0004085172
49.49982,-0.0004081301
49.59982,-0.0004078382
49.69981,-0.0004074936
49.79981,-0.0004071187
49.89981,-0.000406791
49.99981,-0.00040663
50.09981,-0.0004063503
50.19981,-0.0004061525
50.2998,-0.0004059171
50.3998,-0.0004054434
50.4998,-0.0004049942
50.5998,-0.0004047578
50.6998,-0.0004043971
50.7998,-0.0004039159
50.8998,-0.0004037822
50.99979,-0.0004033829
51.09979,-0.0004029478
51.19979,-0.0004027378
51.29979,-0.0004022688
51.39979,-0.0004017433
51.49979,-0.0004013808
51.59978,-0.0004009476
51.69978,-0.0004005266
51.79978,-0.0004001528
51.89978,-0.0003997874
51.99978,-0.000399405
52.09978,-0.0003991084
52.19978,-0.0003988758
52.29977,-0.0003984162
52.39977,-0.0003980009
52.49977,-0.0003977249
52.59977,-0.0003972466
52.69977,-0.0003968209
52.79977,-0.0003965167
52.89977,-0.0003960977
52.99976,-0.000395737
53.09976,-0.0003955373
53.19976,-0.0003951446
53.29976,-0.0003948499
53.39976,-0.0003946069
53.49976,-0.0003942716
53.59975,-0.0003939336
53.69975,-0.000393539
53.79975,-0.0003931896
53.89975,-0.0003928053
53.99975,-0.000392439
54.09975,-0.0003920793
54.19975,-0.0003917572
54.29974,-0.0003914012
54.39974,-0.0003910763
54.49974,-0.0003906761
54.59974,-0.0003903286
54.69974,-0.0003900122
54.79974,-0.0003895922
54.89973,-0.000389271
54.99973,-0.0003890328
55.09973,-0.0003886486
55.19973,-0.0003882851
55.29973,-0.0003879828
55.39973,-0.0003876494
55.49973,-0.000387333
55.59972,-0.0003870165
55.69972,-0.0003867378
55.79972,-0.0003863686
55.89972,-0.0003860569
55.99972,-0.0003857999
56.09972,-0.0003853949
56.19971,-0.0003849824
56.29971,-0.0003847375
56.39971,-0.0003843288
56.49971,-0.0003839362
56.59971,-0.0003836885
56.69971,-0.0003833664
56.79971,-0.0003830283
56.8997,-0.0003829304
56.9997,-0.0003827044
57.0997,-0.0003822796
57.1997,-0.0003818643
57.2997,-0.0003815668
57.3997,-0.0003812127
57.49969,-0.000380851
57.59969,-0.000380609
57.69969,-0.0003802342
57.79969,-0.0003798782
57.89969,-0.0003796672
57.99969,-0.0003793226
58.09969,-0.0003789336
58.19968,-0.0003786624
58.29968,-0.0003783027
58.39968,-0.0003779298
58.49968,-0.0003777094
58.59968,-0.0003774165
58.69968,-0.0003770964
58.79967,-0.0003768948
58.89967,-0.0003765144
58.99967,-0.0003761781
59.09967,-0.0003760067
59.19967,-0.0003757092
59.29967,-0.0003753871
59.39967,-0.0003751931
59.49966,-0.0003752025
59.59966,-0.000374952
59.69966,-0.0003748023
59.79966,-0.0003749643
59.89966,-0.0003746648
59.99966,-0.0003741619
60.09966,-0.0003738709
60.19965,-0.0003733859
60.29965,-0.0003729094
60.39965,-0.0003725478
60.49965,-0.0003722022
60.59965,-0.0003718867
60.69965,-0.0003715797
60.79964,-0.0003712162
60.89964,-0.0003708838
60.99964,-0.0003705824
61.09964,-0.0003702519
61.19964,-0.0003699053
61.29964,-0.000369571
61.39964,-0.000369295
61.49963,-0.0003689692
61.59963,-0.0003686292
61.69963,-0.0003683533
61.79963,-0.0003680548
61.89963,-0.0003677205
61.99963,-0.0003674474
62.09962,-0.0003671243
62.19962,-0.0003669256
62.29962,-0.0003666375
62.39962,-0.0003663003
62.49962,-0.0003659519
62.59962,-0.0003656957
62.69962,-0.0003654114
62.79961,-0.0003650902
62.89961,-0.0003649509
62.99961,-0.0003646919
63.09961,-0.0003643293
63.19961,-0.0003640364
63.29961,-0.0003637624
63.3996,-0.0003634299
63.4996,-0.0003631013
63.5996,-0.0003628253
63.6996,-0.0003625268
63.7996,-0.0003622405
63.8996,-0.0003621266
63.9996,-0.0003618393
64.09959,-0.0003614721
64.19959,-0.0003612178
64.29959,-0.0003611312
64.39959,-0.000360859
64.49959,-0.000360585
64.59959,-0.0003602958
64.69958,-0.000359938
64.79958,-0.0003596866
64.89958,-0.0003594643
64.99958,-0.0003590923
65.09958,-0.0003587213
65.19958,-0.0003584981
65.29958,-0.0003582146
65.39957,-0.000357934
65.49957,-0.0003577381
65.59957,-0.0003574207
65.69957,-0.0003571562
65.79957,-0.0003568764
65.89957,-0.0003565543
65.99957,-0.0003562719
66.09956,-0.0003560693
66.19956,-0.0003558123
66.29956,-0.0003555279
66.39956,-0.0003552689
66.49956,-0.0003551625
66.59956,-0.0003549082
66.69955,-0.0003545522
66.79955,-0.0003544684
66.89955,-0.000354217
66.99955,-0.000353748
67.09955,-0.0003535267
67.19955,-0.0003532423
67.29955,-0.0003529456
67.39954,-0.000352762
67.49954,-0.0003526
67.59954,-0.0003523891
67.69954,-0.0003523458
67.79954,-0.0003521471
67.89954,-0.0003518937
67.99953,-0.000351792
68.09953,-0.0003516724
68.19953,-0.0003513833
68.29953,-0.0003510829
68.39953,-0.0003508578
68.49953,-0.0003505028
68.59953,-0.000350256
68.69952,-0.0003500988
68.79952,-0.0003498313
68.89952,-0.0003495422
68.99952,-0.0003493831
69.09952,-0.000349061
69.19952,-0.0003488265
69.29951,-0.0003485063
69.39951,-0.0003481777
69.49951,-0.0003478528
69.59951,-0.0003476277
69.69951,-0.0003473113
69.79951,-0.0003470108
69.89951,-0.0003467274
69.9995,-0.0003464439
70.0995,-0.0003461397
70.1995,-0.0003458535
70.2995,-0.0003456086
70.3995,-0.0003453336
70.4995,-0.0003450464
70.59949,-0.0003447714
70.69949,-0.0003445077
70.79949,-0.0003442469
70.89949,-0.0003440152
70.99949,-0.0003437723
71.09949,-0.0003436215
71.19949,-0.0003433758
71.29948,-0.000343114
71.39948,-0.0003427872
71.49948,-0.0003425762
71.59948,-0.0003423719
71.69948,-0.0003420592
71.79948,-0.000341917
71.89948,-0.0003416646
71.99947,-0.0003413869
72.09947,-0.0003411759
72.19947,-0.0003408585
72.29947,-0.0003405534
72.39947,-0.0003403001
72.49947,-0.0003399959
72.59946,-0.000339735
72.69946,-0.0003394939
72.79946,-0.0003392764
72.89946,-0.0003390071
72.99946,-0.000338718
73.09946,-0.0003385023
73.19946,-0.0003382415
73.29945,-0.0003379881
73.39945,-0.0003377357
73.49945,-0.0003374974
73.59945,-0.0003372103
73.69945,-0.0003370068
73.79945,-0.0003368204
73.89944,-0.0003365369
73.99944,-0.000336293
74.09944,-0.0003361216
74.19944,-0.0003358259
74.29944,-0.0003355999
74.39944,-0.000335372
74.49944,-0.0003351243
74.59943,-0.0003348465
74.69943,-0.0003346035
74.79943,-0.0003343361
74.89943,-0.0003340809
74.99943,-0.0003339048
75.09943,-0.0003336637
75.19942,-0.0003333868
75.29942,-0.0003332314
75.39942,-0.0003329903
75.49942,-0.0003326965
75.59942,-0.0003325251
75.69942,-0.0003323509
75.79942,-0.0003320486
75.89941,-0.0003317783
75.99941,-0.0003315693
76.09941,-0.0003313075
76.19941,-0.0003311285
76.29941,-0.0003308894
76.39941,-0.000330605
76.4994,-0.0003303902
76.5994,-0.0003301859
76.6994,-0.0003299457
76.7994,-0.0003296962
76.8994,-0.0003295445
76.9994,-0.00032936
77.0994,-0.000329069
77.19939,-0.0003288769
77.29939,-0.0003286857
77.39939,-0.0003284276
77.49939,-0.0003283627
77.59939,-0.0003281301
77.69939,-0.0003279427
77.79939,-0.0003279841
77.89938,-0.0003278033
77.99938,-0.0003275566
78.09938,-0.0003275867
78.19938,-0.0003274492
78.29938,-0.0003271544
78.39938,-0.000326936
78.49937,-0.0003266873
78.59937,-0.0003263521
78.69937,-0.0003260357
78.79937,-0.0003258116
78.89937,-0.0003255949
78.99937,-0.0003253538
79.09937,-0.000325173
79.19936,-0.0003249489
79.29936,-0.0003246701
79.39936,-0.0003244555
79.49936,-0.0003242812
79.59936,-0.0003239469
79.69936,-0.0003236512
79.79935,-0.0003234431
79.89935,-0.000323218
79.99935,-0.0003230033
80.09935,-0.0003227509
80.19935,-0.0003225211
80.29935,-0.0003223337
80.39935,-0.0003220635
80.49934,-0.0003218487
80.59934,-0.0003216434
80.69934,-0.0003214108
80.79934,-0.0003212234
80.89934,-0.0003210219
80.99934,-0.0003207704
81.09933,-0.0003205614
81.19933,-0.0003203975
81.29933,-0.0003202741
81.39933,-0.0003200557
81.49933,-0.0003197383
81.59933,-0.0003196375
81.69933,-0.0003194049
81.79932,-0.0003190678
81.89932,-0.000318855
81.99932,-0.0003186497
82.09932,-0.0003184161
82.19932,-0.0003182664
82.29932,-0.000318046
82.39931,-0.0003177663
82.49931,-0.0003176062
82.59931,-0.0003173896
82.69931,-0.0003171382
82.79931,-0.000316915
82.89931,-0.0003167088
82.99931,-0.0003164667
83.0993,-0.0003162379
83.1993,-0.0003160637
83.2993,-0.0003158669
83.3993,-0.0003156267
83.4993,-0.0003154694
83.5993,-0.0003152406
83.6993,-0.0003149948
83.79929,-0.0003148573
83.89929,-0.0003146426
83.99929,-0.0003144213
84.09929,-0.0003142236
84.19929,-0.0003140305
84.29929,-0.0003138092
84.39928,-0.0003135737
84.49928,-0.0003133845
84.59928,-0.0003131792
84.69928,-0.00031297
84.79928,-0.0003127007
84.89928,-0.0003125491
84.99928,-0.0003124361
85.09927,-0.0003123335
85.19927,-0.0003120792
85.29927,-0.0003118005
85.39927,-0.0003116281
85.49927,-0.0003114878
85.59927,-0.0003113089
85.69926,-0.0003113126
85.79926,-0.0003110574
85.89926,-0.0003107975
85.99926,-0.0003107307
86.09926,-0.0003105291
86.19926,-0.0003102447
86.29926,-0.0003100639
86.39925,-0.000309949
86.49925,-0.0003097654
86.59925,-0.0003095864
86.69925,-0.0003094941
86.79925,-0.0003093651
86.89925,-0.0003091674
86.99924,-0.0003089338
87.09924,-0.0003087078
87.19924,-0.0003085637
87.29924,-0.0003084752
87.39924,-0.0003083132
87.49924,-0.0003080062
87.59924,-0.0003077567
87.69923,-0.0003075589
87.79923,-0.000307314
87.89923,-0.0003070852
87.99923,-0.000306927
88.09923,-0.0003067151
88.19923,-0.0003065117
88.29922,-0.0003063365
88.39922,-0.0003061152
88.49922,-0.0003058751
88.59922,-0.0003057253
88.69922,-0.0003055539
88.79922,-0.0003052987
88.89922,-0.0003053063
88.99921,-0.0003052309
89.09921,-0.0003049588
89.19921,-0.0003048599
89.29921,-0.0003046537
89.39921,-0.0003043184
89.49921,-0.0003040726
89.59921,-0.0003038748
89.6992,-0.000303678
89.7992,-0.0003034991
89.8992,-0.0003033362
89.9992,-0.000303113
90.0992,-0.0003029068
90.1992,-0.000302726
90.29919,-0.0003024962
90.39919,-0.0003022683
90.49919,-0.0003020705
90.59919,-0.0003018586
90.69919,-0.0003016721
90.79919,-0.0003015864
90.89919,-0.0003014113
90.99918,-0.0003012295
91.09918,-0.0003009922
91.19918,-0.0003008623
91.29918,-0.000300656
91.39918,-0.0003005204
91.49918,-0.0003002332
91.59917,-0.0002999714
91.69917,-0.0002998433
91.79917,-0.0002995984
91.89917,-0.0002994176
91.99917,-0.0002992528
92.09917,-0.0002990466
92.19917,-0.0002988347
92.29916,-0.0002986285
92.39916,-0.0002984966
92.49916,-0.0002982857
92.59916,-0.0002980333
92.69916,-0.0002979335
92.79916,-0.0002977074
92.89915,-0.0002974701
92.99915,-0.0002974701
93.09915,-0.0002973731
93.19915,-0.000297084
93.29915,-0.0002969079
93.39915,-0.0002967431
93.49915,-0.0002965011
93.59914,-0.000296276
93.69914,-0.0002961027
93.79914,-0.0002959059
93.89914,-0.0002957637
93.99914,-0.0002955999
94.09914,-0.0002953927
94.19913,-0.0002952231
94.29913,-0.0002950564
94.39913,-0.0002948219
94.49913,-0.0002946007
94.59913,-0.0002944641
94.69913,-0.0002942664
94.79913,-0.0002940309
94.89912,-0.000293884
94.99912,-0.0002936938
95.09912,-0.00029348
95.19912,-0.0002933491
95.29912,-0.000293157
95.39912,-0.0002929753
95.49911,-0.0002928114
95.59911,-0.0002925863
95.69911,-0.0002923904
95.79911,-0.0002922511
95.89911,-0.0002921126
95.99911,-0.0002918809
96.09911,-0.0002917378
96.1991,-0.0002915655
96.2991,-0.0002913517
96.3991,-0.0002911483
96.4991,-0.0002910023
96.5991,-0.0002908187
96.6991,-0.0002906247
96.7991,-0.0002904975
96.89909,-0.0002903384
96.99909,-0.0002901134
97.09909,-0.0002899005
97.19909,-0.0002897197
97.29909,-0.0002895567
97.39909,-0.0002894164
97.49908,-0.0002892093
97.59908,-0.0002890256
97.69908,-0.0002888796
97.79908,-0.0002886932
97.89908,-0.0002885142
97.99908,-0.0002883852
98.09908,-0.0002881385
98.19907,-0.0002879511
98.29907,-0.0002878682
98.39907,-0.0002876837
98.49907,-0.0002875057
98.59907,-0.0002872956
98.69907,-0.0002871186
98.79906,-0.0002869397
98.89906,-0.0002867551
98.99906,-0.0002865677
99.09906,-0.0002863916
99.19906,-0.0002862353
99.29906,-0.0002861684
99.39906,-0.0002859979
99.49905,-0.000285803
99.59905,-0.0002856232
99.69905,-0.0002854188
99.79905,-0.00028527
99.89905,-0.0002851654
99.99905,-0.0002850505
100.099,-0.0002848274
100.199,-0.0002846861
100.299,-0.0002845553
100.399,-0.0002844168
100.499,-0.0002842736
100.599,-0.0002841993
100.699,-0.0002839789
100.799,-0.0002837265
100.899,-0.0002836239
100.999,-0.0002834242
101.099,-0.000283185
101.199,-0.0002830823
101.299,-0.0002829251
101.399,-0.0002827085
101.499,-0.0002825559
101.599,-0.0002824212
101.699,-0.0002823045
101.799,-0.0002821529
101.899,-0.0002819523
101.999,-0.0002818091
102.099,-0.0002816396
102.199,-0.0002814993
102.299,-0.0002813213
102.399,-0.0002811122
102.499,-0.0002809757
102.599,-0.0002808448
102.699,-0.0002806696
102.799,-0.0002806339
102.899,-0.0002804464
102.999,-0.0002801988
103.099,-0.0002800669
103.199,-0.0002798692
103.299,-0.0002796959
103.399,-0.0002796073
103.499,-0.0002794463
103.599,-0.0002793022
103.699,-0.0002791544
103.799,-0.0002789689
103.899,-0.0002787862
103.999,-0.0002786317
104.099,-0.000278418
104.199,-0.0002782626
104.299,-0.000278109
104.399,-0.0002780008
104.499,-0.0002778369
104.599,-0.000277689
104.699,-0.0002775214
104.799,-0.0002773209
104.899,-0.0002771381
104.999,-0.0002770214
105.099,-0.0002768293
105.199,-0.0002766061
105.299,-0.0002765081
105.399,-0.0002763556
105.499,-0.0002761625
105.599,-0.0002761145
105.699,-0.0002760034
105.799,-0.0002757717
105.899,-0.0002756201
105.999,-0.0002754496
106.099,-0.0002752763
106.199,-0.0002751954
106.299,-0.0002750164
106.3989,-0.0002748064
106.4989,-0.0002746821
106.5989,-0.0002745719
106.6989,-0.0002744005
106.7989,-0.000274183
106.8989,-0.000274086
106.9989,-0.000273957
107.0989,-0.0002737328
107.1989,-0.0002735775
107.2989,-0.000273456
107.3989,-0.0002732394
107.4989,-0.0002731264
107.5989,-0.0002729663
107.6989,-0.0002727968
107.7989,-0.0002726819
107.8989,-0.0002725171
107.9989,-0.0002724276
108.0989,-0.0002723099
108.1989,-0.0002721592
108.2989,-0.0002720302
108.3989,-0.0002719944
108.4989,-0.0002717731
108.5989,-0.0002715979
108.6989,-0.0002715358
108.7989,-0.000271322
108.8989,-0.0002710715
108.9989,-0.0002708907
109.0989,-0.000270789
109.1989,-0.000270612
109.2989,-0.0002703944
109.3989,-0.0002703002
109.4989,-0.0002701608
109.5989,-0.0002699461
109.6989,-0.0002697842
109.7989,-0.0002696373
109.8989,-0.0002694668
109.9989,-0.0002693538
110.0989,-0.0002691881
110.1989,-0.0002690073
110.2989,-0.0002689018
110.3989,-0.0002687859
110.4989,-0.0002685656
110.5989,-0.00026843
110.6989,-0.0002682887
110.7989,-0.0002681192
110.8989,-0.0002680052
110.9989,-0.0002678903
111.0989,-0.0002677114
111.1989,-0.0002675871
111.2989,-0.0002674336
111.3989,-0.0002672914
111.4989,-0.0002672377
111.5989,-0.0002671313
111.6989,-0.000266877
111.7989,-0.0002667217
111.8989,-0.0002666237
111.9989,-0.0002664043
112.0989,-0.000266247
112.1989,-0.000266119
112.2989,-0.0002659551
112.3989,-0.0002658044
112.4989,-0.0002656415
112.5989,-0.0002654795
112.6989,-0.0002653797
112.7989,-0.0002652497
112.8988,-0.0002651348
112.9988,-0.0002649936
113.0988,-0.0002648599
113.1988,-0.000264776
113.2988,-0.0002645999
113.3988,-0.0002645142
113.4988,-0.0002645613
113.5988,-0.0002643466
113.6988,-0.0002643005
113.7988,-0.0002645491
113.8988,-0.0002644803
113.9988,-0.0002642317
114.0988,-0.0002641997
114.1988,-0.000264002
114.2988,-0.0002636836
114.3988,-0.0002634849
114.4988,-0.0002633126
114.5988,-0.0002630988
114.6988,-0.0002629416
114.7988,-0.0002628389
114.8988,-0.0002626553
114.9988,-0.0002624217
115.0988,-0.0002623021
115.1988,-0.0002621599
115.2988,-0.0002619612
115.3988,-0.000261835
115.4988,-0.0002616551
115.5988,-0.0002615082
115.6988,-0.0002613547
115.7988,-0.0002612069
115.8988,-0.0002610383
115.9988,-0.0002608886
116.0988,-0.000260737
116.1988,-0.0002605778
116.2988,-0.0002604714
116.3988,-0.0002603443
116.4988,-0.0002601437
116.5988,-0.0002599572
116.6988,-0.0002598545
116.7988,-0.0002596935
116.8988,-0.0002595108
116.9988,-0.0002594053
117.0988,-0.0002592904
117.1988,-0.0002591351
117.2988,-0.0002590051
117.3988,-0.0002588441
117.4988,-0.0002586585
117.5988,-0.0002585493
117.6988,-0.0002583704
117.7988,-0.0002582009
117.8988,-0.0002581067
117.9988,-0.0002579409
118.0988,-0.0002577611
118.1988,-0.0002576905
118.2988,-0.0002575596
118.3988,-0.000257455
118.4988,-0.0002573524
118.5988,-0.0002572346
118.6988,-0.0002569954
118.7988,-0.0002569437
118.8988,-0.0002568401
118.9988,-0.0002566621
119.0988,-0.0002565717
119.1988,-0.0002565303
119.2988,-0.0002563023
119.3988,-0.0002562138
119.4987,-0.0002560772
119.5987,-0.0002558268
119.6987,-0.0002556572
119.7987,-0.0002555706
119.8987,-0.0002554218
119.9987,-0.0002553107
120.0987,-0.0002552137
120.1987,-0.0002550329
120.2987,-0.0002549076
120.3987,-0.0002547636
120.4987,-0.0002545856
120.5987,-0.0002544707
120.6987,-0.0002543718
120.7987,-0.0002542551
120.8987,-0.0002540714
120.9987,-0.0002539574
121.0987,-0.0002539226
121.1987,-0.0002536693
121.2987,-0.0002535073
121.3987,-0.0002533867
121.4987,-0.0002532361
121.5987,-0.0002531174
121.6987,-0.0002530402
121.7987,-0.000252865
121.8987,-0.0002528038
121.9987,-0.0002526946
122.0987,-0.0002527812
122.1987,-0.0002527765
122.2987,-0.0002526126
122.3987,-0.0002526098
122.4987,-0.0002524196
122.5987,-0.0002521418
122.6987,-0.0002520551
122.7987,-0.0002518555
122.8987,-0.0002516389
122.9987,-0.0002515381
123.0987,-0.000251363
123.1987,-0.0002512067
123.2987,-0.0002510541
123.3987,-0.000250942
123.4987,-0.0002507471
123.5987,-0.0002506425
123.6987,-0.0002504909
123.7987,-0.0002503365
123.8987,-0.0002502197
123.9987,-0.0002500888
124.0987,-0.0002499193
124.1987,-0.0002498261
124.2987,-0.0002496584
124.3987,-0.0002494738
124.4987,-0.0002493589
124.5987,-0.0002492168
124.6987,-0.0002490491
124.7987,-0.0002488683
124.8987,-0.000248761
124.9987,-0.000248615
125.0987,-0.0002484615
125.1987,-0.0002483249
125.2987,-0.0002481884
125.3987,-0.0002480594
125.4987,-0.0002479492
125.5987,-0.0002478051
125.6987,-0.0002476309
125.7987,-0.0002475989
125.8987,-0.0002474585
125.9986,-0.0002472966
126.0986,-0.0002472542
126.1986,-0.0002471864
126.2986,-0.0002469811
126.3986,-0.0002469152
126.4986,-0.0002468257
126.5986,-0.0002465922
126.6986,-0.0002464377
126.7986,-0.000246319
126.8986,-0.0002461571
126.9986,-0.0002459857
127.0986,-0.000245852
127.1986,-0.0002457022
127.2986,-0.0002455817
127.3986,-0.0002454818
127.4986,-0.000245334
127.5986,-0.0002451701
127.6986,-0.0002450628
127.7986,-0.0002449319
127.8986,-0.0002447605
127.9986,-0.0002446296
128.0986,-0.00024451
128.1986,-0.0002444064
128.2986,-0.0002442576
128.3986,-0.0002440871
128.4986,-0.0002440005
128.5986,-0.0002438913
128.6987,-0.000243702
128.7987,-0.000243573
128.8987,-0.0002435824
128.9987,-0.0002434383
129.0987,-0.0002433036
129.1987,-0.0002431087
129.2987,-0.0002429806
129.3987,-0.0002428638
129.4987,-0.0002427075
129.5987,-0.0002425512
129.6987,-0.0002424137
129.7987,-0.000242312
129.8987,-0.0002421999
129.9987,-0.0002420474
130.0987,-0.0002419146
130.1987,-0.0002418421
130.2988,-0.0002417281
130.3988,-0.0002415982
130.4988,-0.0002414635
130.5988,-0.0002413335
130.6988,-0.0002412394
130.7988,-0.0002410849
130.8988,-0.0002409672
130.9988,-0.0002408429
131.0988,-0.000240841
131.1988,-0.0002406979
131.2988,-0.0002405067
131.3988,-0.0002404229
131.4988,-0.0002403193
131.5988,-0.0002400716
131.6988,-0.0002399256
131.7988,-0.0002398588
131.8988,-0.0002396921
131.9989,-0.000239564
132.0989,-0.0002395151
132.1989,-0.0002393813
132.2989,-0.0002392693
132.3989,-0.0002392353
132.4989,-0.0002390969
132.5989,-0.0002389764
132.6989,-0.0002390065
132.7989,-0.0002388803
132.8989,-0.0002386873
132.9989,-0.0002386957
133.0989,-0.0002385969
133.1989,-0.0002384217
133.2989,-0.0002382541
133.3989,-0.0002380968
133.4989,-0.0002379188
133.599,-0.0002377823
133.699,-0.0002376645
133.799,-0.0002375374
133.899,-0.0002374498
133.999,-0.0002373782
134.099,-0.0002372652
134.199,-0.0002371673
134.299,-0.0002370684
134.399,-0.0002368867
134.499,-0.0002367445
134.599,-0.0002366446
134.699,-0.0002365703
134.799,-0.0002363715
134.899,-0.000236219
134.999,-0.0002361465
135.099,-0.0002360033
135.1991,-0.0002358272
135.2991,-0.0002357293
135.3991,-0.000235605
135.4991,-0.0002354383
135.5991,-0.0002353677
135.6991,-0.0002352283
135.7991,-0.0002351059
135.8991,-0.0002349928
135.9991,-0.0002348864
136.0991,-0.0002347414
136.1991,-0.0002346519
136.2991,-0.0002345088
136.3991,-0.0002343779
136.4991,-0.000234247
136.5991,-0.0002341858
136.6991,-0.000234069
136.7991,-0.0002339889
136.8992,-0.0002339955
136.9992,-0.0002338505
137.0992,-0.0002336998
137.1992,-0.0002336537
137.2992,-0.0002334616
137.3992,-0.0002332902
137.4992,-0.0002331857
137.5992,-0.000233018
137.6992,-0.0002328796
137.7992,-0.0002328579
137.8992,-0.0002327327
137.9992,-0.0002326084
138.0992,-0.0002325735
138.1992,-0.0002325359
138.2992,-0.0002324737
138.3992,-0.0002324878
138.4993,-0.0002324605
138.5993,-0.0002323146
138.6993,-0.000232162
138.7993,-0.0002319501
138.8993,-0.0002317637
138.9993,-0.0002316177
139.0993,-0.0002314595
139.1993,-0.00023137
139.2993,-0.0002312457
139.3993,-0.0002311628
139.4993,-0.0002310319
139.5993,-0.0002309189
139.6993,-0.0002309359
139.7993,-0.0002307522
139.8993,-0.0002305827
139.9993,-0.0002305328
140.0993,-0.0002304528
140.1994,-0.0002302701
140.2994,-0.000230094
140.3994,-0.0002300026
140.4994,-0.0002298595
140.5994,-0.0002297239
140.6994,-0.0002296137
140.7994,-0.0002294978
140.8994,-0.0002293707
140.9994,-0.0002292464
141.0994,-0.0002291089
141.1994,-0.0002290063
141.2994,-0.0002289093
141.3994,-0.0002288405
141.4994,-0.000228703
141.5994,-0.0002285938
141.6994,-0.0002284629
141.7995,-0.0002283047
141.8995,-0.0002281804
141.9995,-0.000228106
142.0995,-0.0002279393
142.1995,-0.0002277716
142.2995,-0.0002277152
142.3995,-0.0002275748
142.4995,-0.0002273931
142.5995,-0.0002273403
142.6995,-0.0002272593
142.7995,-0.0002271002
142.8995,-0.0002269552
142.9995,-0.0002269288
143.0995,-0.0002268563
143.1995,-0.0002266698
143.2995,-0.0002264937
143.3996,-0.0002264221
143.4996,-0.000226295
143.5996,-0.0002261415
143.6996,-0.0002260577
143.7996,-0.0002259739
143.8996,-0.0002259249
143.9996,-0.0002258477
144.0996,-0.0002257507
144.1996,-0.000225617
144.2996,-0.0002255124
144.3996,-0.0002253542
144.4996,-0.0002253147
144.5996,-0.0002251536
144.6996,-0.0002249662
144.7996,-0.0002248947
144.8996,-0.0002247562
144.9996,-0.0002246376
145.0997,-0.000224534
145.1997,-0.0002243729
145.2997,-0.0002242731
145.3997,-0.0002241865
145.4997,-0.0002240367
145.5997,-0.0002239077
145.6997,-0.0002238766
145.7997,-0.0002236996
145.8997,-0.0002236035
145.9997,-0.0002234981
146.0997,-0.0002234162
146.1997,-0.0002233107
146.2997,-0.00022324
146.3997,-0.0002231157
146.4997,-0.0002231101
146.5997,-0.0002230752
146.6998,-0.0002230564
146.7998,-0.0002228332
146.8998,-0.0002227711
146.9998,-0.0002227645
147.0998,-0.0002224716
147.1998,-0.0002223661
147.2998,-0.0002222738
147.3998,-0.0002220864
147.4998,-0.000221947
147.5998,-0.0002218764
147.6998,-0.0002217747
147.7998,-0.0002216561
147.8998,-0.0002215364
147.9998,-0.0002214479
148.0998,-0.0002213123
148.1998,-0.0002211682
148.2999,-0.0002211164
148.3999,-0.0002209752
148.4999,-0.0002207972
148.5999,-0.000220736
148.6999,-0.0002206211
148.7999,-0.0002204723
148.8999,-0.0002203791
148.9999,-0.0002202613
149.0999,-0.0002201436
149.1999,-0.0002200994
149.2999,-0.0002200156
149.3999,-0.000219862
149.4999,-0.0002197829
149.5999,-0.0002197076
149.6999,-0.0002195277
149.7999,-0.0002194411
149.8999,-0.0002193215
150,-0.0002191614
150.1,-0.0002190343
150.2,-0.0002189194
150.3,-0.0002188337
150.4,-0.0002187517
150.5,-0.0002186237
150.6,-0.0002185267
150.7,-0.0002184485
150.8,-0.0002183713
150.9,-0.0002181839
151,-0.0002180784
151.1,-0.0002179955
151.2,-0.0002178562
151.3,-0.000217745
151.4,-0.000217648
151.5,-0.0002175049
151.6001,-0.000217423
151.7001,-0.0002173175
151.8001,-0.0002172581
151.9001,-0.000217148
152.0001,-0.0002170048
152.1001,-0.0002168777
152.2001,-0.0002167807
152.3001,-0.0002167025
152.4001,-0.0002167007
152.5001,-0.0002165236
152.6001,-0.0002164162
152.7001,-0.0002163852
152.8001,-0.0002162194
152.9001,-0.0002160744
153.0001,-0.0002159557
153.1001,-0.0002158117
153.2001,-0.0002157043
153.3002,-0.0002156431
153.4002,-0.0002155254
153.5002,-0.000215435
153.6002,-0.0002153304
153.7002,-0.0002152315
153.8002,-0.0002151525
153.9002,-0.0002150159
154.0002,-0.0002149236
154.1002,-0.0002148031
154.2002,-0.0002146609
154.3002,-0.0002145978
154.4002,-0.0002145092
154.5002,-0.0002143962
154.6002,-0.0002142757
154.7002,-0.0002141561
154.8002,-0.0002140553
154.9003,-0.0002139301
155.0003,-0.0002138302
155.1003,-0.0002137201
155.2003,-0.0002135995
155.3003,-0.0002134828
155.4003,-0.000213382
155.5003,-0.0002132671
155.6003,-0.0002131287
155.7003,-0.0002130543
155.8003,-0.0002129394
155.9003,-0.0002128405
156.0003,-0.0002127746
156.1003,-0.0002126823
156.2003,-0.0002126277
156.3003,-0.0002124233
156.4003,-0.0002122764
156.5004,-0.00021225
156.6004,-0.0002120824
156.7004,-0.0002119656
156.8004,-0.0002118799
156.9004,-0.0002117707
157.0004,-0.0002117264
157.1004,-0.0002116219
157.2004,-0.0002115475
157.3004,-0.0002113987
157.4004,-0.00021128
157.5004,-0.0002111887
157.6004,-0.0002111087
157.7004,-0.0002110277
157.8004,-0.0002108968
157.9004,-0.0002107169
158.0004,-0.0002106453
158.1004,-0.0002105973
158.2005,-0.0002104146
158.3005,-0.0002102714
158.4005,-0.0002102583
158.5005,-0.0002101481
158.6005,-0.0002099993
158.7005,-0.0002099447
158.8005,-0.0002099258
158.9005,-0.0002097817
159.0005,-0.0002096885
159.1005,-0.0002095896
159.2005,-0.000209454
159.3005,-0.00020939
159.4005,-0.0002092534
159.5005,-0.0002090924
159.6005,-0.0002090302
159.7005,-0.0002089332
159.8006,-0.000208792
159.9006,-0.0002087082
160.0006,-0.0002086328
160.1006,-0.0002085019
160.2006,-0.0002083598
160.3006,-0.0002083089
160.4006,-0.0002081987
160.5006,-0.0002080904
160.6006,-0.0002080245
160.7006,-0.0002079614
160.8006,-0.0002079548
160.9006,-0.0002079887
161.0006,-0.0002079237
161.1006,-0.000207773
161.2006,-0.0002078107
161.3006,-0.0002076808
161.4007,-0.0002074331
161.5007,-0.0002073568
161.6007,-0.0002072438
161.7007,-0.0002071063
161.8007,-0.0002069801
161.9007,-0.0002068774
162.0007,-0.0002067757
162.1007,-0.0002067211
162.2007,-0.0002065676
162.3007,-0.0002064904
162.4007,-0.0002063991
162.5007,-0.0002062785
162.6007,-0.0002061806
162.7007,-0.0002060968
162.8007,-0.0002059772
162.9007,-0.0002058736
163.0007,-0.0002058048
163.1008,-0.0002057314
163.2008,-0.0002057558
163.3008,-0.0002056127
163.4008,-0.0002054328
163.5008,-0.0002053707
163.6008,-0.000205236
163.7008,-0.0002051127
163.8008,-0.0002050241
163.9008,-0.0002049224
164.0008,-0.0002047915
164.1008,-0.0002047284
164.2008,-0.0002046098
164.3008,-0.0002044732
164.4008,-0.0002043743
164.5008,-0.0002042886
164.6008,-0.0002041653
164.7009,-0.0002040325
164.8009,-0.0002039072
164.9009,-0.0002038375
165.0009,-0.0002037556
165.1009,-0.0002036379
165.2009,-0.000203556
165.3009,-0.0002034637
165.4009,-0.0002034091
165.5009,-0.0002032753
165.6009,-0.0002031746
165.7009,-0.0002031378
165.8009,-0.0002029759
165.9009,-0.0002028629
166.0009,-0.0002028177
166.1009,-0.0002026575
166.2009,-0.0002025314
166.3009,-0.0002024353
166.401,-0.0002023195
166.501,-0.0002022291
166.601,-0.0002021462
166.701,-0.0002020191
166.801,-0.0002019249
166.901,-0.0002018392
167.001,-0.000201761
167.101,-0.0002016066
167.201,-0.000201535
167.301,-0.0002014455
167.401,-0.0002013147
167.501,-0.0002012063
167.601,-0.0002011065
167.701,-0.0002010152
167.801,-0.0002009163
167.901,-0.0002008231
168.0011,-0.0002006809
168.1011,-0.000200566
168.2011,-0.000200501
168.3011,-0.0002003804
168.4011,-0.0002002665
168.5011,-0.0002001761
168.6011,-0.0002000734
168.7011,-0.0001999501
168.8011,-0.0001998842
168.9011,-0.0001997759
169.0011,-0.0001997316
169.1011,-0.0001997504
169.2011,-0.0001996855
169.3011,-0.0001995847
169.4011,-0.0001997485
169.5011,-0.000199676
169.6012,-0.0001995385
169.7012,-0.0001995979
169.8012,-0.0001995743
169.9012,-0.0001994444
170.0012,-0.0001993248
170.1012,-0.0001991487
170.2012,-0.0001990357
170.3012,-0.0001989001
170.4012,-0.0001987371
170.5012,-0.0001986543
170.6012,-0.0001985563
170.7012,-0.0001984433
170.8012,-0.0001983425
170.9012,-0.0001982126
171.0012,-0.0001981862
171.1012,-0.00019806
171.2012,-0.0001979414
171.3013,-0.0001978999
171.4013,-0.0001978265
171.5013,-0.0001976193
171.6013,-0.0001975185
171.7013,-0.0001974319
171.8013,-0.0001972944
171.9013,-0.0001972012
172.0013,-0.0001971513
172.1013,-0.000196977
172.2013,-0.0001968989
172.3013,-0.0001968791
172.4013,-0.0001967877
172.5013,-0.0001966644
172.6013,-0.0001966013
172.7013,-0.0001965664
172.8013,-0.000196412
172.9014,-0.0001963244
173.0014,-0.000196202
173.1014,-0.0001960598
173.2014,-0.0001959769
173.3014,-0.000195894
173.4014,-0.0001957999
173.5014,-0.0001957132
173.6014,-0.0001956784
173.7014,-0.0001955456
173.8014,-0.0001954637
173.9014,-0.0001954571
174.0014,-0.0001953676
174.1014,-0.0001951576
174.2014,-0.0001950615
174.3014,-0.0001949646
174.4014,-0.0001948308
174.5014,-0.0001947423
174.6015,-0.0001946999
174.7015,-0.000194553
174.8015,-0.0001944165
174.9015,-0.0001943713
175.0015,-0.0001942093
175.1015,-0.0001940972
175.2015,-0.0001940897
175.3015,-0.0001939541
175.4015,-0.0001938486
175.5015,-0.0001939371
175.6015,-0.0001938797
175.7015,-0.0001936763
175.8015,-0.0001935576
175.9015,-0.0001934832
176.0015,-0.0001934013
176.1015,-0.0001935284
176.2016,-0.0001935416
176.3016,-0.0001933598
176.4016,-0.0001934455
176.5016,-0.0001934691
176.6016,-0.000193309
176.7016,-0.0001932553
176.8016,-0.0001933467
176.9016,-0.0001932063
177.0016,-0.0001930594
177.1016,-0.0001929992
177.2016,-0.0001928758
177.3016,-0.0001927826
177.4016,-0.0001926648
177.5016,-0.0001925679
177.6016,-0.0001924906
177.7016,-0.0001923983
177.8017,-0.0001922928
177.9017,-0.0001922966
178.0017,-0.0001921563
178.1017,-0.0001921271
178.2017,-0.000191999
178.3017,-0.0001918258
178.4017,-0.0001917881
178.5017,-0.0001916431
178.6017,-0.000191466
178.7017,-0.0001913944
178.8017,-0.0001913342
178.9017,-0.0001911816
179.0017,-0.0001910545
179.1017,-0.0001909424
179.2017,-0.0001908426
179.3017,-0.0001907428
179.4017,-0.0001906382
179.5018,-0.0001904923
179.6018,-0.0001904621
179.7018,-0.0001903284
179.8018,-0.0001901768
179.9018,-0.0001900676
180.0018,-0.0001899894
180.1018,-0.0001898547
180.2018,-0.0001897379
180.3018,-0.0001896654
180.4018,-0.0001895647
180.5018,-0.0001894017
180.6018,-0.0001893886
180.7018,-0.0001893104
180.8018,-0.0001891833
180.9018,-0.0001890495
181.0018,-0.0001889704
181.1019,-0.0001888574
181.2019,-0.0001887228
181.3019,-0.0001886314
181.4019,-0.000188557
181.5019,-0.000188444
181.6019,-0.000188331
181.7019,-0.0001882604
181.8019,-0.000188153
181.9019,-0.0001880221
182.0019,-0.0001879213
182.1019,-0.0001878582
182.2019,-0.0001877603
182.3019,-0.0001876228
182.4019,-0.0001875654
182.5019,-0.0001874957
182.6019,-0.0001873412
182.702,-0.0001872734
182.802,-0.0001872179
182.902,-0.0001870502
183.002,-0.0001869325
183.102,-0.000186925
183.202,-0.0001868073
183.302,-0.0001867206
183.402,-0.0001866396
183.502,-0.0001865605
183.602,-0.0001865059
183.702,-0.000186521
183.802,-0.0001865577
183.902,-0.0001864023
184.002,-0.0001864183
184.102,-0.0001864268
184.202,-0.0001861961
184.302,-0.0001860539
184.4021,-0.0001859352
184.5021,-0.0001858043
184.6021,-0.0001856292
184.7021,-0.000185551
184.8021,-0.0001854596
184.9021,-0.0001853579
185.0021,-0.0001852713
185.1021,-0.0001852195
185.2021,-0.0001851131
185.3021,-0.0001850943
185.4021,-0.0001851122
185.5021,-0.0001849747
185.6021,-0.0001848607
185.7021,-0.0001848767
185.8021,-0.0001847063
185.9021,-0.0001845716
186.0022,-0.0001845
186.1022,-0.0001843814
186.2022,-0.0001842505
186.3022,-0.0001841761
186.4022,-0.0001840631
186.5022,-0.0001839689
186.6022,-0.0001839011
186.7022,-0.0001838305
186.8022,-0.0001837033
186.9022,-0.0001835837
187.0022,-0.0001835216
187.1022,-0.000183417
187.2022,-0.0001832984
187.3022,-0.0001832391
187.4022,-0.0001831364
187.5022,-0.0001830366
187.6022,-0.0001829603
187.7023,-0.0001828802
187.8023,-0.0001827606
187.9023,-0.0001827004
188.0023,-0.0001826279
188.1023,-0.0001824866
188.2023,-0.000182399
188.3023,-0.0001823077
188.4023,-0.0001822135
188.5023,-0.0001821363
188.6023,-0.0001820383
188.7023,-0.0001819103
188.8023,-0.000181833
188.9023,-0.0001817558
189.0023,-0.00018164
189.1023,-0.0001815628
189.2023,-0.0001814893
189.3024,-0.0001814083
189.4024,-0.0001813311
189.5024,-0.0001812002
189.6024,-0.000181107
189.7024,-0.0001810015
189.8024,-0.000180929
189.9024,-0.0001808282
190.0024,-0.0001807519
190.1024,-0.0001806681
190.2024,-0.000180557
190.3024,-0.0001804685
190.4024,-0.0001803677
190.5024,-0.0001802688
190.6024,-0.0001801709
190.7024,-0.0001800786
190.8024,-0.0001799675
190.9025,-0.0001798724
191.0025,-0.0001798055
191.1025,-0.0001797311
191.2025,-0.0001796209
191.3025,-0.000179522
191.4025,-0.0001795211
191.5025,-0.000179409
191.6025,-0.0001792715
191.7025,-0.0001792122
191.8025,-0.0001791463
191.9025,-0.0001790041
192.0025,-0.0001789203
192.1025,-0.0001788525
192.2025,-0.0001787705
192.3025,-0.0001786754
192.4025,-0.0001785926
192.5025,-0.0001784842
192.6026,-0.0001784033
192.7026,-0.0001783147
192.8026,-0.000178278
192.9026,-0.0001781895
193.0026,-0.0001780313
193.1026,-0.0001779437
193.2026,-0.0001778495
193.3026,-0.0001777591
193.4026,-0.0001776339
193.5026,-0.0001775877
193.6026,-0.0001775651
193.7026,-0.0001774399
193.8026,-0.0001773504
193.9026,-0.0001772911
194.0026,-0.000177212
194.1026,-0.0001771112
194.2027,-0.0001770632
194.3027,-0.0001769737
194.4027,-0.000176872
194.5027,-0.0001768381
194.6027,-0.0001767317
194.7027,-0.0001766196
194.8027,-0.0001765377
194.9027,-0.0001764303
195.0027,-0.0001763597
195.1027,-0.0001762279
195.2027,-0.0001761676
195.3027,-0.0001760197
195.4027,-0.0001759501
195.5027,-0.0001759048
195.6027,-0.0001757994
195.7027,-0.0001757212
195.8027,-0.000175708
195.9028,-0.000175692
196.0028,-0.0001755846
196.1028,-0.0001754717
196.2028,-0.000175401
196.3028,-0.0001752993
196.4028,-0.0001753172
196.5028,-0.0001753116
196.6028,-0.0001751439
196.7028,-0.0001750601
196.8028,-0.0001750441
196.9028,-0.0001748972
197.0028,-0.0001747945
197.1028,-0.0001747315
197.2028,-0.0001746382
197.3028,-0.0001745139
197.4028,-0.0001744376
197.5029,-0.0001743717
197.6029,-0.0001742587
197.7029,-0.0001741702
197.8029,-0.0001741645
197.9029,-0.0001740534
198.0029,-0.0001739357
198.1029,-0.0001738556
198.2029,-0.0001737831
198.3029,-0.000173688
198.4029,-0.0001735731
198.5029,-0.0001734931
198.6029,-0.0001734111
198.7029,-0.0001733198
198.8029,-0.0001732115
198.9029,-0.0001731258
199.0029,-0.0001730655
199.103,-0.0001729723
199.203,-0.0001728357
199.303,-0.0001727726
199.403,-0.0001726804
199.503,-0.0001725777
199.603,-0.0001724948
199.703,-0.0001723913
199.803,-0.0001723074
199.903,-0.0001722377
200.003,-0.0001721417
200.103,-0.0001720437
200.203,-0.0001719901
200.303,-0.0001718846
200.403,-0.0001717895
200.503,-0.0001717273
200.603,-0.0001716492
200.703,-0.0001715267
200.8031,-0.0001714599
200.9031,-0.000171409
201.0031,-0.0001713205
201.1031,-0.0001712301
201.2031,-0.0001712103
201.3031,-0.0001710926
201.4031,-0.0001709862
201.5031,-0.0001709061
201.6031,-0.0001708685
201.7031,-0.0001707423
201.8031,-0.0001707159
201.9031,-0.0001706264
202.0031,-0.0001705163
202.1031,-0.0001704522
202.2031,-0.000170311
202.3031,-0.0001701885
202.4032,-0.0001700915
202.5032,-0.0001700058
202.6032,-0.0001699098
202.7032,-0.000169842
202.8032,-0.0001697271
202.9032,-0.0001696461
203.0032,-0.0001695613
203.1032,-0.0001694851
203.2032,-0.0001693909
203.3032,-0.0001692967
203.4032,-0.0001692534
203.5032,-0.0001691611
203.6032,-0.0001690585
203.7032,-0.0001689991
203.8032,-0.0001688946
203.9032,-0.0001688164
204.0033,-0.0001687703
204.1033,-0.0001686705
204.2033,-0.0001685556
204.3033,-0.0001684897
204.4033,-0.0001684294
204.5033,-0.000168323
204.6033,-0.0001682316
204.7033,-0.0001681478
204.8033,-0.000168064
204.9033,-0.0001679999
205.0033,-0.0001679218
205.1033,-0.0001678634
205.2033,-0.0001677777
205.3033,-0.0001676619
205.4033,-0.0001675875
205.5033,-0.0001674858
205.6033,-0.0001674123
205.7034,-0.0001672871
205.8034,-0.0001672164
205.9034,-0.0001671618
206.0034,-0.0001670281
206.1034,-0.0001669631
206.2034,-0.0001668755
206.3034,-0.0001667691
206.4034,-0.0001666938
206.5034,-0.0001666561
206.6034,-0.0001665742
206.7034,-0.000166496
206.8034,-0.0001664263
206.9034,-0.0001664065
207.0034,-0.0001662907
207.1034,-0.0001661994
207.2034,-0.0001661438
207.3035,-0.000166011
207.4035,-0.0001659084
207.5035,-0.0001658396
207.6035,-0.0001657662
207.7035,-0.0001656324
207.8035,-0.0001655552
207.9035,-0.0001654686
208.0035,-0.0001653923
208.1035,-0.0001653151
208.2035,-0.0001652322
208.3035,-0.000165155
208.4035,-0.0001650806
208.5035,-0.0001650071
208.6035,-0.000164929
208.7035,-0.0001648357
208.8035,-0.0001647811
208.9035,-0.0001646898
209.0036,-0.0001646144
209.1036,-0.0001645843
209.2036,-0.0001644355
209.3036,-0.0001643442
209.4036,-0.0001643216
209.5036,-0.0001642095
209.6036,-0.000164105
209.7036,-0.0001640843
209.8036,-0.0001640183
209.9036,-0.0001639128
210.0036,-0.0001638554
210.1036,-0.0001637791
210.2036,-0.0001636802
210.3036,-0.0001636134
210.4036,-0.0001635493
210.5036,-0.000163442
210.6037,-0.00016336
210.7037,-0.0001632743
210.8037,-0.0001631887
210.9037,-0.0001630728
211.0037,-0.0001630248
211.1037,-0.0001629457
211.2037,-0.0001628412
211.3037,-0.0001627733
211.4037,-0.0001626839
211.5037,-0.0001625991
211.6037,-0.0001625144
211.7037,-0.0001624117
211.8037,-0.0001623477
211.9037,-0.0001623232
212.0037,-0.0001622036
212.1037,-0.0001621066
212.2038,-0.0001620812
212.3038,-0.0001619955
212.4038,-0.0001619004
212.5038,-0.0001618307
212.6038,-0.0001617883
212.7038,-0.000161712
212.8038,-0.0001616178
212.9038,-0.0001615943
213.0038,-0.0001615387
213.1038,-0.0001614399
213.2038,-0.0001613391
213.3038,-0.0001612722
213.4038,-0.0001611423
213.5038,-0.0001611376
213.6038,-0.00016113
213.7038,-0.0001610067
213.8038,-0.0001609888
213.9039,-0.0001609944
214.0039,-0.0001608202
214.1039,-0.0001607496
214.2039,-0.0001606761
214.3039,-0.0001605622
214.4039,-0.0001604463
214.5039,-0.0001603531
214.6039,-0.000160258
214.7039,-0.0001602034
214.8039,-0.0001601487
214.9039,-0.0001600235
215.0039,-0.0001599434
215.1039,-0.0001599312
215.2039,-0.0001598126
215.3039,-0.0001597334
215.4039,-0.0001597099
215.504,-0.0001597071
215.604,-0.0001595969
215.704,-0.0001595668
215.804,-0.0001595517
215.904,-0.0001594076
216.004,-0.0001593709
216.104,-0.0001593031
216.204,-0.0001591816
216.304,-0.0001590554
216.404,-0.0001590055
216.504,-0.0001588605
216.604,-0.0001587625
216.704,-0.0001587437
216.804,-0.0001586514
216.904,-0.0001585676
217.004,-0.0001585572
217.104,-0.00015848
217.2041,-0.0001584273
217.3041,-0.0001583613
217.4041,-0.0001582681
217.5041,-0.0001581994
217.6041,-0.0001581739
217.7041,-0.0001580826
217.8041,-0.0001579602
217.9041,-0.0001579206
218.0041,-0.0001578603
218.1041,-0.0001577709
218.2041,-0.0001576541
218.3041,-0.0001575985
218.4041,-0.0001575496
218.5041,-0.0001574027
218.6041,-0.0001573433
218.7041,-0.000157267
218.8042,-0.0001572002
218.9042,-0.0001571889
219.0042,-0.0001571211
219.1042,-0.0001570231
219.2042,-0.000156977
219.3042,-0.0001568489
219.4042,-0.0001567924
219.5042,-0.0001567519
219.6042,-0.0001566474
219.7042,-0.0001565636
219.8042,-0.0001565108
219.9042,-0.0001563988
220.0042,-0.0001563743
220.1042,-0.0001563046
220.2042,-0.0001561728
220.3042,-0.0001561021
220.4043,-0.0001560174
220.5043,-0.0001559533
220.6043,-0.0001558318
220.7043,-0.0001557151
220.8043,-0.0001556783
220.9043,-0.0001556011
221.0043,-0.0001555032
221.1043,-0.0001554429
221.2043,-0.0001553695
221.3043,-0.0001553101
221.4043,-0.0001552386
221.5043,-0.0001551745
221.6043,-0.0001550982
221.7043,-0.0001550003
221.8043,-0.0001549231
221.9043,-0.000154843
222.0043,-0.0001547347
222.1044,-0.0001546622
222.2044,-0.0001545718
222.3044,-0.0001545059
222.4044,-0.0001544343
222.5044,-0.0001543467
222.6044,-0.0001543562
222.7044,-0.00015431
222.8044,-0.0001542017
222.9044,-0.0001541386
223.0044,-0.0001541264
223.1044,-0.0001540162
223.2044,-0.0001539343
223.3044,-0.0001539324
223.4044,-0.0001538109
223.5044,-0.0001536687
223.6044,-0.0001536131
223.7045,-0.00015355
223.8045,-0.0001533928
223.9045,-0.0001533052
224.0045,-0.000153275
224.1045,-0.0001531762
224.2045,-0.0001530829
224.3045,-0.0001530471
224.4045,-0.0001529775
224.5045,-0.000152888
224.6045,-0.0001528117
224.7045,-0.0001527364
224.8045,-0.0001526497
224.9045,-0.0001525998
225.0045,-0.0001525122
225.1045,-0.0001524312
225.2045,-0.0001523616
225.3046,-0.0001523333
225.4046,-0.0001522005
225.5046,-0.0001521356
225.6046,-0.0001520875
225.7046,-0.0001519858
225.8046,-0.0001518888
225.9046,-0.000151838
226.0046,-0.0001517579
226.1046,-0.0001516666
226.2046,-0.0001515997
226.3046,-0.0001515507
226.4046,-0.0001514698
226.5046,-0.000151498
226.6046,-0.0001514763
226.7046,-0.0001513822
226.8046,-0.0001514264
226.9046,-0.0001513963
227.0047,-0.0001512494
227.1047,-0.0001512211
227.2047,-0.0001512174
227.3047,-0.0001511062
227.4047,-0.0001509951
227.5047,-0.0001509122
227.6047,-0.0001507634
227.7047,-0.0001506523
227.8047,-0.0001505412
227.9047,-0.000150464
228.0047,-0.0001503924
228.1047,-0.0001503255
228.2047,-0.00015027
228.3047,-0.0001502041
228.4047,-0.0001501297
228.5047,-0.000150076
228.6048,-0.0001499856
228.7048,-0.0001499366
228.8048,-0.0001498829
228.9048,-0.0001497822
229.0048,-0.0001497417
229.1048,-0.0001497294
229.2048,-0.0001496268
229.3048,-0.0001495392
229.4048,-0.0001495241
229.5048,-0.0001494412
229.6048,-0.0001493066
229.7048,-0.000149284
229.8048,-0.0001492388
229.9048,-0.0001491343
230.0048,-0.0001491088
230.1048,-0.0001490373
230.2048,-0.0001489092
230.3049,-0.000148864
230.4049,-0.0001488178
230.5049,-0.0001486898
230.6049,-0.0001486191
230.7049,-0.0001485221
230.8049,-0.0001484204
230.9049,-0.0001483743
231.0049,-0.0001483291
231.1049,-0.0001482726
231.2049,-0.0001481793
231.3049,-0.0001481341
231.4049,-0.0001480513
231.5049,-0.0001479392
231.6049,-0.0001478554
231.7049,-0.0001478055
231.8049,-0.0001477038
231.905,-0.0001476312
232.005,-0.0001475813
232.105,-0.0001475182
232.205,-0.0001474391
232.305,-0.0001473723
232.405,-0.0001473299
232.505,-0.0001472555
232.605,-0.0001471594
232.705,-0.0001470926
232.805,-0.0001470172
232.905,-0.0001469428
233.005,-0.0001468703
233.105,-0.0001467761
233.205,-0.0001467338
233.305,-0.0001466424
233.405,-0.0001465351
233.5051,-0.0001464767
233.6051,-0.0001464315
233.7051,-0.0001463646
233.8051,-0.000146294
233.9051,-0.0001462299
234.0051,-0.0001461669
234.1051,-0.0001460849
234.2051,-0.0001459945
234.3051,-0.0001459211
234.4051,-0.000145874
234.5051,-0.000145826
234.6051,-0.0001457337
234.7051,-0.0001456687
234.8051,-0.0001456207
234.9051,-0.0001454973
235.0051,-0.0001454201
235.1051,-0.0001453767
235.2052,-0.0001452873
235.3052,-0.0001451856
235.4052,-0.000145131
235.5052,-0.000145098
235.6052,-0.0001449963
235.7052,-0.0001449322
235.8052,-0.0001448984
235.9052,-0.0001448164
236.0052,-0.0001447383
236.1052,-0.0001446864
236.2052,-0.0001446158
236.3052,-0.0001445113
236.4052,-0.0001444388
236.5052,-0.0001443559
236.6052,-0.0001442843
236.7052,-0.0001442514
236.8053,-0.0001441459
236.9053,-0.000144047
237.0053,-0.0001440423
237.1053,-0.0001440235
237.2053,-0.0001439406
237.3053,-0.00014387
237.4053,-0.0001438163
237.5053,-0.0001437033
237.6053,-0.0001436675
237.7053,-0.0001436515
237.8053,-0.000143547
237.9053,-0.0001434349
238.0053,-0.0001433916
238.1053,-0.0001432955
238.2053,-0.0001431806
238.3053,-0.0001431015
238.4053,-0.0001430281
238.5054,-0.0001429744
238.6054,-0.0001428755
238.7054,-0.0001428002
238.8054,-0.000142754
238.9054,-0.0001426627
239.0054,-0.0001425807
239.1054,-0.0001424932
239.2054,-0.0001424536
239.3054,-0.0001423698
239.4054,-0.000142286
239.5054,-0.0001422059
239.6054,-0.0001421334
239.7054,-0.0001420637
239.8054,-0.0001420204
239.9054,-0.0001419705
240.0054,-0.0001418867
240.1055,-0.000141801
240.2055,-0.0001417624
240.3055,-0.0001416814
240.4055,-0.0001415882
240.5055,-0.0001415637
240.6055,-0.0001415072
240.7055,-0.0001414083
240.8055,-0.0001413348
240.9055,-0.0001412859
241.0055,-0.0001412199
241.1055,-0.0001411276
241.2055,-0.0001410608
241.3055,-0.000140992
241.4055,-0.0001409365
241.5055,-0.0001408922
241.6055,-0.0001407896
241.7056,-0.000140701
241.8056,-0.0001406577
241.9056,-0.0001405777
242.0056,-0.0001405268
242.1056,-0.0001404948
242.2056,-0.0001404326
242.3056,-0.0001403517
242.4056,-0.0001404082
242.5056,-0.0001403969
242.6056,-0.0001402971
242.7056,-0.0001402368
242.8056,-0.0001401586
242.9056,-0.0001400739
243.0056,-0.0001399656
243.1056,-0.0001398281
243.2056,-0.0001397763
243.3056,-0.0001397019
243.4057,-0.0001396143
243.5057,-0.0001395502
243.6057,-0.0001394872
243.7057,-0.0001394062
243.8057,-0.0001393101
243.9057,-0.0001392376
244.0057,-0.000139215
244.1057,-0.0001391284
244.2057,-0.0001390502
244.3057,-0.0001390172
244.4057,-0.0001389918
244.5057,-0.0001389155
244.6057,-0.000138843
244.7057,-0.0001388157
244.8057,-0.0001387319
244.9057,-0.0001386339
245.0058,-0.0001385935
245.1058,-0.0001385209
245.2058,-0.0001384513
245.3058,-0.0001384296
245.4058,-0.0001383514
245.5058,-0.000138327
245.6058,-0.0001383571
245.7058,-0.0001382893
245.8058,-0.000138261
245.9058,-0.000138374
246.0058,-0.000138309
246.1058,-0.0001381913
246.2058,-0.0001381442
246.3058,-0.0001380181
246.4058,-0.0001378401
246.5058,-0.0001377685
246.6059,-0.0001376837
246.7059,-0.0001375999
246.8059,-0.0001375321
246.9059,-0.0001375293
247.0059,-0.0001374963
247.1059,-0.0001373993
247.2059,-0.0001373928
247.3059,-0.0001373532
247.4059,-0.0001372261
247.5059,-0.0001372129
247.6059,-0.00013713
247.7059,-0.0001370528
247.8059,-0.0001369511
247.9059,-0.0001368729
248.0059,-0.0001368127
248.1059,-0.0001367345
248.2059,-0.0001366996
248.306,-0.0001366573
248.406,-0.0001365734
248.506,-0.0001364633
248.606,-0.0001363879
248.706,-0.0001363427
248.806,-0.0001362862
248.906,-0.0001362193
249.006,-0.0001361365
249.106,-0.0001361308
249.206,-0.0001361261
249.306,-0.0001360112
249.406,-0.000135885
249.506,-0.0001358285
249.606,-0.00013574
249.706,-0.0001356995
249.806,-0.000135708
249.9061,-0.0001356618
250.0061,-0.0001355677
250.1061,-0.0001355865
250.2061,-0.000135531
250.3061,-0.0001354255
250.4061,-0.0001353661
250.5061,-0.0001352993
250.6061,-0.0001352418
250.7061,-0.0001351345
250.8061,-0.0001350158
250.9061,-0.0001349518
251.0061,-0.0001348934
251.1061,-0.0001347992
251.2061,-0.0001347371
251.3061,-0.0001346749
251.4061,-0.0001345939
251.5061,-0.0001345101
251.6062,-0.0001344734
251.7062,-0.0001344065
251.8062,-0.0001343255
251.9062,-0.0001342587
252.0062,-0.0001342135
252.1062,-0.0001341786
252.2062,-0.0001341268
252.3062,-0.0001340844
252.4062,-0.0001340345
252.5062,-0.0001339583
252.6062,-0.0001338886
252.7062,-0.0001338679
252.8062,-0.0001337595
252.9062,-0.000133752
253.0062,-0.0001337972
253.1062,-0.0001336861
253.2063,-0.00013359
253.3063,-0.0001336362
253.4063,-0.0001335326
253.5063,-0.0001333602
253.6063,-0.0001333085
253.7063,-0.000133219
253.8063,-0.0001331229
253.9063,-0.0001330259
254.0063,-0.0001329864
254.1063,-0.0001328847
254.2063,-0.0001328216
254.3063,-0.0001327896
254.4063,-0.0001326991
254.5063,-0.0001326398
254.6063,-0.000132605
254.7063,-0.0001325042
254.8064,-0.00013246
254.9064,-0.0001323931
255.0064,-0.0001322989
255.1064,-0.0001322716
255.2064,-0.0001323027
255.3064,-0.0001322443
255.4064,-0.0001321322
255.5064,-0.0001321473
255.6064,-0.0001320814
255.7064,-0.0001319288
255.8064,-0.0001318704
255.9064,-0.0001318243
256.0064,-0.000131748
256.1064,-0.0001316604
256.2064,-0.000131554
256.3064,-0.0001315286
256.4064,-0.0001314617
256.5064,-0.0001313431
256.6064,-0.0001313139
256.7065,-0.0001312282
256.8065,-0.000131117
256.9065,-0.000131085
257.0065,-0.0001310031
257.1065,-0.0001309127
257.2065,-0.0001308826
257.3065,-0.0001308364
257.4065,-0.0001307865
257.5065,-0.000130779
257.6065,-0.0001307677
257.7065,-0.0001306594
257.8065,-0.000130569
257.9065,-0.0001305106
258.0065,-0.0001304541
258.1065,-0.000130471
258.2065,-0.0001304522
258.3065,-0.0001303929
258.4066,-0.0001303985
258.5066,-0.0001303147
258.6066,-0.0001302045
258.7066,-0.0001301141
258.8066,-0.0001299672
258.9066,-0.0001298711
259.0066,-0.0001297911
259.1066,-0.0001297252
259.2066,-0.0001296432
259.3066,-0.0001295839
259.4066,-0.0001295528
259.5066,-0.0001294643
259.6066,-0.0001293805
259.7066,-0.0001293485
259.8066,-0.0001292647
259.9066,-0.0001291818
260.0067,-0.0001291338
260.1067,-0.0001290358
260.2067,-0.0001289803
260.3067,-0.0001289332
260.4067,-0.000128936
260.5067,-0.0001288465
260.6067,-0.0001287853
260.7067,-0.0001286836
260.8067,-0.0001286036
260.9067,-0.0001285631
261.0067,-0.0001285423
261.1067,-0.0001284642
261.2067,-0.000128452
261.3067,-0.0001284783
261.4067,-0.0001283794
261.5067,-0.0001283276
261.6068,-0.0001283314
261.7068,-0.0001282193
261.8068,-0.0001281016
261.9068,-0.0001280385
262.0068,-0.0001279509
262.1068,-0.0001278568
262.2068,-0.0001277975
262.3068,-0.0001277456
262.4068,-0.0001276807
262.5068,-0.0001276129
262.6068,-0.0001275639
262.7068,-0.0001274989
262.8068,-0.0001274254
262.9068,-0.0001274113
263.0068,-0.0001273153
263.1068,-0.0001272475
263.2068,-0.000127206
263.3069,-0.0001271863
263.4069,-0.0001271232
263.5069,-0.0001270497
263.6069,-0.0001270271
263.7069,-0.0001269198
263.8069,-0.000126916
263.9069,-0.0001268604
264.0069,-0.0001267418
264.1069,-0.0001266768
264.2069,-0.0001266128
264.3069,-0.0001264988
264.4069,-0.0001264508
264.5069,-0.000126399
264.6069,-0.0001263406
264.7069,-0.0001262455
264.8069,-0.0001262313
264.907,-0.0001261372
265.007,-0.0001260929
265.107,-0.0001260374
265.207,-0.000125994
265.307,-0.0001259243
265.407,-0.0001258773
265.507,-0.0001258104
265.607,-0.0001257115
265.707,-0.0001256522
265.807,-0.0001256051
265.907,-0.0001255298
266.007,-0.0001254431
266.107,-0.0001253923
266.207,-0.0001253282
266.307,-0.0001252793
266.407,-0.0001252209
266.507,-0.0001251907
266.6071,-0.0001251088
266.7071,-0.0001250372
266.8071,-0.0001249685
266.9071,-0.0001249007
267.0071,-0.0001249007
267.1071,-0.0001248545
267.2071,-0.0001247877
267.3071,-0.0001248216
267.4071,-0.0001247622
267.5071,-0.0001246389
267.6071,-0.0001245777
267.7071,-0.0001244477
267.8071,-0.0001243601
267.9071,-0.0001242942
268.0071,-0.0001242518
268.1071,-0.0001241379
268.2072,-0.0001240757
268.3072,-0.0001240446
268.4072,-0.0001239627
268.5072,-0.0001239015
268.6072,-0.0001239184
268.7072,-0.0001238629
268.8072,-0.0001237555
268.9072,-0.0001237197
269.0072,-0.0001236802
269.1072,-0.0001235738
269.2072,-0.0001236039
269.3072,-0.0001235917
269.4072,-0.0001234758
269.5072,-0.000123505
269.6072,-0.0001234806
269.7072,-0.0001233939
269.8073,-0.0001232781
269.9073,-0.0001231519
270.0073,-0.000123085
270.1073,-0.0001230059
270.2073,-0.0001229164
270.3073,-0.0001228628
270.4073,-0.0001227978
270.5073,-0.0001227507
270.6073,-0.0001226641
270.7073,-0.0001225803
270.8073,-0.0001225718
270.9073,-0.00012252
271.0073,-0.0001223928
271.1073,-0.0001223957
271.2073,-0.000122358
271.3073,-0.0001222572
271.4073,-0.0001221828
271.5074,-0.0001221904
271.6074,-0.000122099
271.7074,-0.0001220124
271.8074,-0.0001219983
271.9074,-0.0001219258
272.0074,-0.0001218344
272.1074,-0.0001217704
272.2074,-0.0001217091
272.3074,-0.0001216122
272.4074,-0.0001215604
272.5074,-0.0001215029
272.6074,-0.0001214248
272.7074,-0.0001213645
272.8074,-0.0001212694
272.9074,-0.0001212176
273.0074,-0.0001212006
273.1075,-0.0001211046
273.2075,-0.0001210358
273.3075,-0.0001210226
273.4075,-0.0001209699
273.5075,-0.0001208691
273.6075,-0.0001208333
273.7075,-0.000120807
273.8075,-0.0001207392
273.9075,-0.0001206704
274.0075,-0.0001206393
274.1075,-0.0001205875
274.2075,-0.0001205009
274.3075,-0.0001204322
274.4075,-0.0001203813
274.5075,-0.0001203446
274.6075,-0.0001202919
274.7076,-0.0001201939
274.8076,-0.0001201129
274.9076,-0.0001200884
275.0076,-0.0001200244
275.1076,-0.0001199255
275.2076,-0.0001198916
275.3076,-0.0001198408
275.4076,-0.0001197635
275.5076,-0.0001196938
275.6076,-0.0001196656
275.7076,-0.0001196091
275.8076,-0.0001195394
275.9076,-0.0001194669
276.0076,-0.0001194132
276.1076,-0.0001193407
276.2076,-0.0001192748
276.3076,-0.0001192183
276.4077,-0.0001191561
276.5077,-0.0001191213
276.6077,-0.000119044
276.7077,-0.0001189471
276.8077,-0.0001189037
276.9077,-0.0001188557
277.0077,-0.0001187785
277.1077,-0.0001187097
277.2077,-0.0001186579
277.3077,-0.0001185694
277.4077,-0.000118528
277.5077,-0.0001184734
277.6077,-0.0001183867
277.7077,-0.0001183425
277.8077,-0.0001182756
277.9077,-0.0001182182
278.0078,-0.0001181729
278.1078,-0.0001181456
278.2078,-0.0001180618
278.3078,-0.0001180496
278.4078,-0.0001179893
278.5078,-0.0001179102
278.6078,-0.0001178707
278.7078,-0.0001178594
278.8078,-0.0001177821
278.9078,-0.0001177115
279.0078,-0.0001177021
279.1078,-0.0001176814
279.2078,-0.0001176249
279.3078,-0.0001175844
279.4078,-0.0001175147
279.5078,-0.0001174572
279.6078,-0.0001173923
279.7079,-0.0001172858
279.8079,-0.0001172435
279.9079,-0.0001171907
280.0079,-0.0001171267
280.1079,-0.0001170372
280.2079,-0.0001169656
280.3079,-0.0001169167
280.4079,-0.0001168272
280.5079,-0.0001167396
280.6079,-0.0001167396
280.7079,-0.0001166473
280.8079,-0.0001165795
280.9079,-0.000116556
281.0079,-0.0001164882
281.1079,-0.0001163818
281.2079,-0.0001163573
281.308,-0.0001163403
281.408,-0.0001162716
281.508,-0.0001162283
281.608,-0.0001162132
281.708,-0.0001161369
281.808,-0.0001160578
281.908,-0.000116023
282.008,-0.0001159655
282.108,-0.0001159561
282.208,-0.0001159373
282.308,-0.0001159288
282.408,-0.0001159768
282.508,-0.0001159561
282.608,-0.0001158582
282.708,-0.0001158488
282.808,-0.0001157687
282.9081,-0.000115602
283.0081,-0.0001155728
283.1081,-0.0001155201
283.2081,-0.0001154052
283.3081,-0.0001153233
283.4081,-0.0001152649
283.5081,-0.000115231
283.6081,-0.0001151236
283.7081,-0.0001150624
283.8081,-0.0001150342
283.9081,-0.000114989
284.0081,-0.0001148882
284.1081,-0.000114859
284.2081,-0.0001148082
284.3081,-0.0001147733
284.4081,-0.0001147017
284.5081,-0.0001146565
284.6082,-0.000114585
284.7082,-0.000114504
284.8082,-0.0001144832
284.9082,-0.0001144305
285.0082,-0.0001143674
285.1082,-0.0001143486
285.2082,-0.0001142808
285.3082,-0.0001142196
285.4082,-0.0001141998
285.5082,-0.0001141056
285.6082,-0.0001140614
285.7082,-0.0001140105
285.8082,-0.0001139107
285.9082,-0.0001138344
286.0082,-0.0001138193
286.1082,-0.0001137534
286.2083,-0.0001136508
286.3083,-0.0001136366
286.4083,-0.0001136159
286.5083,-0.0001135067
286.6083,-0.0001134313
286.7083,-0.0001134285
286.8083,-0.0001133475
286.9083,-0.0001132703
287.0083,-0.000113211
287.1083,-0.0001131479
287.2083,-0.0001130961
287.3083,-0.0001130424
287.4083,-0.0001129708
287.5083,-0.0001129501
287.6083,-0.0001128625
287.7083,-0.0001128446
287.8083,-0.0001127938
287.9084,-0.0001127373
288.0084,-0.0001126789
288.1084,-0.000112661
288.2084,-0.0001126139
288.3084,-0.0001125395
288.4084,-0.0001125339
288.5084,-0.000112499
288.6084,-0.000112402
288.7084,-0.0001123465
288.8084,-0.0001123596
288.9084,-0.0001122787
289.0084,-0.0001121967
289.1084,-0.0001121873
289.2084,-0.000112127
289.3084,-0.0001119943
289.4084,-0.000111983
289.5085,-0.0001119434
289.6085,-0.0001118219
289.7085,-0.0001117494
289.8085,-0.0001117532
289.9085,-0.0001117277
290.0085,-0.0001116543
290.1085,-0.0001115592
290.2085,-0.0001115253
290.3085,-0.0001114584
290.4085,-0.0001113727
290.5085,-0.0001113614
290.6085,-0.0001113219
290.7085,-0.0001112625
290.8085,-0.0001112324
290.9085,-0.0001111806
291.0085,-0.0001110751
291.1086,-0.0001110092
291.2086,-0.0001109508
291.3086,-0.0001108764
291.4086,-0.0001108312
291.5086,-0.0001107436
291.6086,-0.0001106881
291.7086,-0.0001106768
291.8086,-0.0001106457
291.9086,-0.0001105845
292.0086,-0.0001105374
292.1086,-0.0001105204
292.2086,-0.0001104234
292.3086,-0.0001104197
292.4086,-0.0001104592
292.5086,-0.0001103585
292.6086,-0.0001102643
292.7086,-0.0001102294
292.8087,-0.0001101522
292.9087,-0.0001100543
293.0087,-0.0001100119
293.1087,-0.000109979
293.2087,-0.0001098923
293.3087,-0.0001098236
293.4087,-0.0001097529
293.5087,-0.00010972
293.6087,-0.0001096917
293.7087,-0.0001095928
293.8087,-0.0001095429
293.9087,-0.0001095166
294.0087,-0.0001094629
294.1087,-0.0001093904
294.2087,-0.0001093404
294.3087,-0.0001093188
294.4088,-0.0001092623
294.5088,-0.0001091982
294.6088,-0.0001091286
294.7088,-0.0001090673
294.8088,-0.0001090174
294.9088,-0.0001089807
295.0088,-0.0001088941
295.1088,-0.0001088046
295.2088,-0.0001088272
295.3088,-0.0001087651
295.4088,-0.0001086972
295.5088,-0.0001086473
295.6088,-0.0001086426
295.7088,-0.0001085475
295.8088,-0.0001085193
295.9088,-0.0001085174
296.0089,-0.0001084515
296.1089,-0.0001084468
296.2089,-0.000108426
296.3089,-0.0001083441
296.4089,-0.0001082933
296.5089,-0.0001082076
296.6089,-0.000108151
296.7089,-0.0001080644
296.8089,-0.0001079957
296.9089,-0.0001079297
297.0089,-0.0001078629
297.1089,-0.0001078177
297.2089,-0.0001077442
297.3089,-0.0001076708
297.4089,-0.0001076651
297.5089,-0.000107603
297.6089,-0.0001075173
297.709,-0.0001075041
297.809,-0.0001074551
297.909,-0.0001073609
298.009,-0.0001073167
298.109,-0.0001073157
298.209,-0.0001072451
298.309,-0.0001071698
298.409,-0.0001071462
298.509,-0.0001071227
298.609,-0.000107037
298.709,-0.0001069871
298.809,-0.0001069447
298.909,-0.0001068759
299.009,-0.000106811
299.109,-0.0001067554
299.209,-0.0001067055
299.3091,-0.0001066546
299.4091,-0.0001065906
299.5091,-0.0001065614
299.6091,-0.0001065219
299.7091,-0.0001064625
299.8091,-0.0001064437
299.9091,-0.0001063947
300.0091,-0.0001062977
300.1091,-0.000106261
300.2091,-0.0001062101
300.3091,-0.0001061838
300.4091,-0.0001061065
300.5091,-0.0001060548
300.6091,-0.0001060209
300.7091,-0.0001059286
300.8091,-0.0001058542
300.9091,-0.0001058221
301.0092,-0.0001057496
301.1092,-0.0001056847
301.2092,-0.0001056733
301.3092,-0.0001056677
301.4092,-0.000105565
301.5092,-0.0001055359
301.6092,-0.0001055227
301.7092,-0.000105453
301.8092,-0.0001053645
301.9092,-0.0001053306
302.0092,-0.000105242
302.1092,-0.0001051799
302.2092,-0.0001051526
302.3092,-0.0001050546
302.4092,-0.0001049944
302.5092,-0.0001049887
302.6093,-0.0001049397
302.7093,-0.0001048927
302.8093,-0.0001048842
302.9093,-0.0001048427
303.0093,-0.0001047608
303.1093,-0.0001047617
303.2093,-0.0001046921
303.3093,-0.0001045932
303.4093,-0.0001045499
303.5093,-0.0001044962
303.6093,-0.0001044152
303.7093,-0.0001043756
303.8093,-0.0001043578
303.9093,-0.0001042796
304.0093,-0.0001042146
304.1093,-0.0001041939
304.2094,-0.0001041788
304.3094,-0.0001041138
304.4094,-0.0001040526
304.5094,-0.0001040206
304.6094,-0.0001039293
304.7094,-0.0001038972
304.8094,-0.0001038417
304.9094,-0.0001037654
305.0094,-0.0001037334
305.1094,-0.000103658
305.2094,-0.0001036279
305.3094,-0.0001035742
305.4094,-0.0001035177
305.5094,-0.0001034791
305.6094,-0.0001034151
305.7094,-0.0001033539
305.8094,-0.0001032936
305.9095,-0.0001032531
306.0095,-0.0001032248
306.1095,-0.000103174
306.2095,-0.0001031288
306.3095,-0.000103093
306.4095,-0.0001030073
306.5095,-0.0001029527
306.6095,-0.000102931
306.7095,-0.0001028679
306.8095,-0.0001027775
306.9095,-0.00010277
307.0095,-0.0001027078
307.1095,-0.0001026155
307.2095,-0.0001025788
307.3095,-0.0001025459
307.4095,-0.0001024639
307.5096,-0.000102431
307.6096,-0.0001023905
307.7096,-0.0001023302
307.8096,-0.0001022502
307.9096,-0.0001022191
308.0096,-0.0001021673
308.1096,-0.0001021014
308.2096,-0.0001020957
308.3096,-0.0001020665
308.4096,-0.0001019808
308.5096,-0.0001019601
308.6096,-0.0001018876
308.7096,-0.0001018565
308.8096,-0.0001018235
308.9096,-0.0001017379
309.0096,-0.0001016889
309.1096,-0.0001016898
309.2097,-0.0001016173
309.3097,-0.0001015373
309.4097,-0.0001015156
309.5097,-0.0001014723
309.6097,-0.0001013904
309.7097,-0.0001013291
309.8097,-0.0001013056
309.9097,-0.0001012199
310.0097,-0.0001011785
310.1097,-0.0001011578
310.2097,-0.0001010843
310.3097,-0.0001010193
310.4097,-0.00010104
310.5097,-0.0001009939
310.6097,-0.0001009336
310.7097,-0.0001009148
310.8098,-0.0001008837
310.9098,-0.0001008055
311.0098,-0.0001007519
311.1098,-0.0001007151
311.2098,-0.0001006417
311.3098,-0.0001006021
311.4098,-0.0001005428
311.5098,-0.0001005042
311.6098,-0.000100474
311.7098,-0.0001004223
311.8098,-0.0001003837
311.9098,-0.000100313
312.0098,-0.000100297
312.1098,-0.0001002301
312.2098,-0.0001001426
312.3098,-0.0001001266
312.4099,-0.0001000691
312.5099,-9.997776E-05
312.6099,-9.996269E-05
312.7099,-9.990807E-05
312.8099,-9.982332E-05
312.9099,-9.979506E-05
313.0099,-9.977152E-05
313.1099,-9.971973E-05
313.2099,-9.964345E-05
313.3099,-9.965098E-05
313.4099,-9.959166E-05
313.5099,-9.949653E-05
313.6099,-9.947582E-05
313.7099,-9.942779E-05
313.8099,-9.937504E-05
313.9099,-9.938541E-05
314.0099,-9.935057E-05
314.11,-9.928465E-05
314.21,-9.929218E-05
314.31,-9.923097E-05
314.41,-9.914998E-05
314.51,-9.908217E-05
314.61,-9.902661E-05
314.71,-9.897952E-05
314.81,-9.896257E-05
314.91,-9.891926E-05
315.01,-9.887499E-05
315.11,-9.884014E-05
315.21,-9.881754E-05
315.31,-9.878459E-05
315.41,-9.871866E-05
315.51,-9.875539E-05
315.61,-9.869983E-05
315.7101,-9.864426E-05
315.8101,-9.864145E-05
315.9101,-9.861131E-05
316.0101,-9.850771E-05
316.1101,-9.846816E-05
316.2101,-9.839753E-05
316.3101,-9.829583E-05
316.4101,-9.825344E-05
316.5101,-9.821107E-05
316.6101,-9.813855E-05
316.7101,-9.807169E-05
316.8101,-9.805663E-05
316.9101,-9.800388E-05
317.0101,-9.794268E-05
317.1101,-9.785886E-05
317.2101,-9.785039E-05
317.3102,-9.781554E-05
317.4102,-9.775433E-05
317.5102,-9.770913E-05
317.6102,-9.766298E-05
317.7102,-9.763191E-05
317.8102,-9.756316E-05
317.9102,-9.752643E-05
318.0102,-9.748877E-05
318.1102,-9.742191E-05
318.2102,-9.736445E-05
318.3102,-9.732679E-05
318.4102,-9.73089E-05
318.5102,-9.724297E-05
318.6102,-9.724015E-05
318.7102,-9.721849E-05
318.8102,-9.716952E-05
318.9102,-9.720907E-05
319.0103,-9.716387E-05
319.1103,-9.710265E-05
319.2103,-9.708476E-05
319.3103,-9.702731E-05
319.4103,-9.691996E-05
319.5103,-9.687663E-05
319.6103,-9.683332E-05
319.7103,-9.672785E-05
319.8103,-9.669489E-05
319.9103,-9.666663E-05
320.0103,-9.662802E-05
320.1103,-9.654702E-05
320.2103,-9.651783E-05
320.3103,-9.64651E-05
320.4103,-9.640483E-05
320.5103,-9.637846E-05
320.6104,-9.63342E-05
320.7104,-9.628711E-05
320.8104,-9.626921E-05
320.9104,-9.623155E-05
321.0104,-9.613927E-05
321.1104,-9.611101E-05
321.2104,-9.605451E-05
321.3104,-9.598858E-05
321.4104,-9.594809E-05
321.5104,-9.594338E-05
321.6104,-9.588028E-05
321.7104,-9.580777E-05
321.8104,-9.580966E-05
321.9104,-9.574751E-05
322.0104,-9.566275E-05
322.1104,-9.564862E-05
322.2104,-9.563167E-05
322.3105,-9.553279E-05
322.4105,-9.549606E-05
322.5105,-9.548947E-05
322.6105,-9.544144E-05
322.7105,-9.54226E-05
322.8105,-9.543579E-05
322.9105,-9.536704E-05
323.0105,-9.532089E-05
323.1105,-9.529264E-05
323.2105,-9.520317E-05
323.3105,-9.51495E-05
323.4105,-9.508169E-05
323.5105,-9.502331E-05
323.6105,-9.497716E-05
323.7105,-9.490747E-05
323.8105,-9.484438E-05
323.9106,-9.482366E-05
324.0106,-9.480671E-05
324.1106,-9.472478E-05
324.2106,-9.468335E-05
324.3106,-9.464945E-05
324.4106,-9.458823E-05
324.5106,-9.453832E-05
324.6106,-9.450253E-05
324.7106,-9.444414E-05
324.8106,-9.438294E-05
324.9106,-9.437351E-05
325.0106,-9.43123E-05
325.1106,-9.425863E-05
325.2106,-9.421907E-05
325.3106,-9.415503E-05
325.4106,-9.40957E-05
325.5107,-9.407404E-05
325.6107,-9.402225E-05
325.7107,-9.395539E-05
325.8107,-9.392902E-05
325.9107,-9.385368E-05
326.0107,-9.385557E-05
326.1107,-9.38113E-05
326.2107,-9.374727E-05
326.3107,-9.369924E-05
326.4107,-9.366911E-05
326.5107,-9.361919E-05
326.6107,-9.35608E-05
326.7107,-9.352408E-05
326.8107,-9.349771E-05
326.9107,-9.345627E-05
327.0107,-9.342048E-05
327.1107,-9.338376E-05
327.2108,-9.330465E-05
327.3108,-9.326226E-05
327.4108,-9.323119E-05
327.5108,-9.316621E-05
327.6108,-9.30937E-05
327.7108,-9.308428E-05
327.8108,-9.304567E-05
327.9108,-9.299481E-05
328.0108,-9.295998E-05
328.1108,-9.291572E-05
328.2108,-9.287899E-05
328.3108,-9.291759E-05
328.4108,-9.287993E-05
328.5108,-9.284131E-05
328.6108,-9.285167E-05
328.7108,-9.282437E-05
328.8109,-9.274244E-05
328.9109,-9.267368E-05
329.0109,-9.263696E-05
329.1109,-9.253903E-05
329.2109,-9.246839E-05
329.3109,-9.243731E-05
329.4109,-9.235256E-05
329.5109,-9.229041E-05
329.6109,-9.22791E-05
329.7109,-9.223861E-05
329.8109,-9.215762E-05
329.9109,-9.214444E-05
330.0109,-9.210677E-05
330.1109,-9.20286E-05
330.2109,-9.198434E-05
330.3109,-9.19721E-05
330.4109,-9.189206E-05
330.511,-9.18638E-05
330.611,-9.183178E-05
330.711,-9.176303E-05
330.811,-9.1715E-05
330.911,-9.169712E-05
331.011,-9.165097E-05
331.111,-9.159447E-05
331.211,-9.154926E-05
331.311,-9.150783E-05
331.411,-9.144756E-05
331.511,-9.146356E-05
331.611,-9.147675E-05
331.711,-9.144191E-05
331.811,-9.147863E-05
331.911,-9.143249E-05
332.011,-9.137221E-05
332.1111,-9.131101E-05
332.2111,-9.118858E-05
332.3111,-9.11641E-05
332.4111,-9.111418E-05
332.5111,-9.10426E-05
332.6111,-9.100023E-05
332.7111,-9.095503E-05
332.8111,-9.091642E-05
332.9111,-9.08844E-05
333.0111,-9.083072E-05
333.1111,-9.087592E-05
333.2111,-9.082601E-05
333.3111,-9.07582E-05
333.4111,-9.072713E-05
333.5111,-9.067063E-05
333.6111,-9.059058E-05
333.7112,-9.058211E-05
333.8112,-9.05303E-05
333.9112,-9.047569E-05
334.0112,-9.044461E-05
334.1112,-9.042107E-05
334.2112,-9.034856E-05
334.3112,-9.03269E-05
334.4112,-9.029676E-05
334.5112,-9.019505E-05
334.6112,-9.014797E-05
334.7112,-9.012819E-05
334.8112,-9.009051E-05
334.9112,-8.998505E-05
335.0112,-8.999164E-05
335.1112,-8.994832E-05
335.2112,-8.986262E-05
335.3112,-8.983625E-05
335.4113,-8.979576E-05
335.5113,-8.975527E-05
335.6113,-8.968746E-05
335.7113,-8.968275E-05
335.8113,-8.961117E-05
335.9113,-8.956974E-05
336.0113,-8.954055E-05
336.1113,-8.948216E-05
336.2113,-8.946898E-05
336.3113,-8.944167E-05
336.4113,-8.94266E-05
336.5113,-8.939082E-05
336.6113,-8.940212E-05
336.7113,-8.93023E-05
336.8113,-8.924014E-05
336.9113,-8.926933E-05
337.0114,-8.918834E-05
337.1114,-8.910924E-05
337.2114,-8.906498E-05
337.3114,-8.902637E-05
337.4114,-8.897834E-05
337.5114,-8.893595E-05
337.6114,-8.885497E-05
337.7114,-8.881353E-05
337.8114,-8.881447E-05
337.9114,-8.876174E-05
338.0114,-8.867415E-05
338.1114,-8.866474E-05
338.2114,-8.85894E-05
338.3114,-8.852631E-05
338.4114,-8.850935E-05
338.5114,-8.844532E-05
338.6115,-8.838881E-05
338.7115,-8.838034E-05
338.8115,-8.83615E-05
338.9115,-8.829559E-05
339.0115,-8.827674E-05
339.1115,-8.82485E-05
339.2115,-8.817975E-05
339.3115,-8.813549E-05
339.4115,-8.811759E-05
339.5115,-8.806862E-05
339.6115,-8.798952E-05
339.7115,-8.802059E-05
339.8115,-8.796409E-05
339.9115,-8.790005E-05
340.0115,-8.78991E-05
340.1115,-8.787651E-05
340.2115,-8.781435E-05
340.3116,-8.779647E-05
340.4116,-8.777669E-05
340.5116,-8.772771E-05
340.6116,-8.767404E-05
340.7116,-8.760718E-05
340.8116,-8.758175E-05
340.9116,-8.751583E-05
341.0116,-8.744331E-05
341.1116,-8.743483E-05
341.2116,-8.73868E-05
341.3116,-8.731901E-05
341.4116,-8.727098E-05
341.5116,-8.720694E-05
341.6116,-8.722577E-05
341.7116,-8.713631E-05
341.8116,-8.708923E-05
341.9117,-8.706945E-05
342.0117,-8.706191E-05
342.1117,-8.699317E-05
342.2117,-8.692819E-05
342.3117,-8.694513E-05
342.4117,-8.69037E-05
342.5117,-8.685567E-05
342.6117,-8.681047E-05
342.7117,-8.67954E-05
342.8117,-8.674925E-05
342.9117,-8.668522E-05
343.0117,-8.666356E-05
343.1117,-8.662872E-05
343.2117,-8.659293E-05
343.3117,-8.652607E-05
343.4117,-8.646862E-05
343.5117,-8.644319E-05
343.6118,-8.639893E-05
343.7118,-8.63302E-05
343.8118,-8.629157E-05
343.9118,-8.625109E-05
344.0118,-8.62087E-05
344.1118,-8.615879E-05
344.2118,-8.61409E-05
344.3118,-8.608346E-05
344.4118,-8.603354E-05
344.5118,-8.602319E-05
344.6118,-8.598834E-05
344.7118,-8.596197E-05
344.8118,-8.596291E-05
344.9118,-8.591112E-05
345.0118,-8.583296E-05
345.1118,-8.580471E-05
345.2119,-8.578775E-05
345.3119,-8.573125E-05
345.4119,-8.576609E-05
345.5119,-8.575667E-05
345.6119,-8.56851E-05
345.7119,-8.574537E-05
345.8119,-8.570488E-05
345.9119,-8.559563E-05
346.0119,-8.55363E-05
346.1119,-8.545344E-05
346.2119,-8.539034E-05
346.3119,-8.535455E-05
346.4119,-8.532537E-05
346.5119,-8.52585E-05
346.6119,-8.526415E-05
346.7119,-8.522176E-05
346.812,-8.516527E-05
346.912,-8.511535E-05
347.012,-8.50984E-05
347.112,-8.504567E-05
347.212,-8.500611E-05
347.312,-8.499105E-05
347.412,-8.493548E-05
347.512,-8.488651E-05
347.612,-8.487145E-05
347.712,-8.481589E-05
347.812,-8.474055E-05
347.912,-8.473678E-05
348.012,-8.467745E-05
348.112,-8.462471E-05
348.212,-8.458609E-05
348.312,-8.457103E-05
348.412,-8.44618E-05
348.5121,-8.446085E-05
348.6121,-8.444955E-05
348.7121,-8.436009E-05
348.8121,-8.434125E-05
348.9121,-8.433277E-05
349.0121,-8.427062E-05
349.1121,-8.422354E-05
349.2121,-8.421694E-05
349.3121,-8.418304E-05
349.4121,-8.410958E-05
349.5121,-8.410394E-05
349.6121,-8.405403E-05
349.7121,-8.400129E-05
349.8121,-8.396644E-05
349.9121,-8.393066E-05
350.0121,-8.389958E-05
350.1122,-8.385155E-05
350.2122,-8.381765E-05
350.3122,-8.376397E-05
350.4122,-8.376114E-05
350.5122,-8.374797E-05
350.6122,-8.369899E-05
350.7122,-8.369146E-05
350.8122,-8.375267E-05
350.9122,-8.370558E-05
351.0122,-8.362553E-05
351.1122,-8.368298E-05
351.2122,-8.361424E-05
351.3122,-8.351818E-05
351.4122,-8.347768E-05
351.5122,-8.340234E-05
351.6122,-8.334207E-05
351.7122,-8.329216E-05
351.8123,-8.327239E-05
351.9123,-8.324131E-05
352.0123,-8.318669E-05
352.1123,-8.316597E-05
352.2123,-8.312453E-05
352.3123,-8.31123E-05
352.4123,-8.308497E-05
352.5123,-8.301246E-05
352.6123,-8.296727E-05
352.7123,-8.296915E-05
352.8123,-8.289946E-05
352.9123,-8.283448E-05
353.0123,-8.28147E-05
353.1123,-8.280811E-05
353.2123,-8.271583E-05
353.3123,-8.267721E-05
353.4124,-8.266968E-05
353.5124,-8.262636E-05
353.6124,-8.258021E-05
353.7124,-8.255761E-05
353.8124,-8.252371E-05
353.9124,-8.249829E-05
354.0124,-8.245779E-05
354.1124,-8.240411E-05
354.2124,-8.233253E-05
354.3124,-8.235326E-05
354.4124,-8.229016E-05
354.5124,-8.223177E-05
354.6124,-8.220352E-05
354.7124,-8.217339E-05
354.8124,-8.211971E-05
354.9124,-8.209899E-05
355.0125,-8.207638E-05
355.1125,-8.201329E-05
355.2125,-8.195867E-05
355.3125,-8.192853E-05
355.4125,-8.191158E-05
355.5125,-8.184472E-05
355.6125,-8.179857E-05
355.7125,-8.176938E-05
355.8125,-8.174113E-05
355.9125,-8.169875E-05
356.0125,-8.16592E-05
356.1125,-8.165449E-05
356.2125,-8.164695E-05
356.3125,-8.158386E-05
356.4125,-8.156314E-05
356.5125,-8.15575E-05
356.6125,-8.146332E-05
356.7126,-8.142283E-05
356.8126,-8.139646E-05
356.9126,-8.134748E-05
357.0126,-8.129287E-05
357.1126,-8.126838E-05
357.2126,-8.124955E-05
357.3126,-8.115161E-05
357.4126,-8.114407E-05
357.5126,-8.114784E-05
357.6126,-8.107156E-05
357.7126,-8.101223E-05
357.8126,-8.104331E-05
357.9126,-8.103954E-05
358.0126,-8.098492E-05
358.1126,-8.095666E-05
358.2126,-8.09369E-05
358.3127,-8.08851E-05
358.4127,-8.091994E-05
358.5127,-8.093312E-05
358.6127,-8.088699E-05
358.7127,-8.086909E-05
358.8127,-8.087097E-05
358.9127,-8.07994E-05
359.0127,-8.07363E-05
359.1127,-8.07024E-05
359.2127,-8.06346E-05
359.3127,-8.059599E-05
359.4127,-8.053572E-05
359.5127,-8.048863E-05
359.6127,-8.045755E-05
359.7127,-8.042082E-05
359.8127,-8.037561E-05
359.9128,-8.035396E-05
360.0128,-8.032571E-05
360.1128,-8.028333E-05
360.2128,-8.024095E-05
360.3128,-8.021647E-05
360.4128,-8.01788E-05
360.5128,-8.012606E-05
360.6128,-8.006485E-05
360.7128,-8.008745E-05
360.8128,-8.00432E-05
360.9128,-7.998198E-05
361.0128,-7.996408E-05
361.1128,-7.994242E-05
361.2128,-7.988968E-05
361.3128,-7.985014E-05
361.4128,-7.982659E-05
361.5128,-7.977479E-05
361.6129,-7.975313E-05
361.7129,-7.973807E-05
361.8129,-7.969569E-05
361.9129,-7.966744E-05
362.0129,-7.963824E-05
362.1129,-7.95921E-05
362.2129,-7.956386E-05
362.3129,-7.953936E-05
362.4129,-7.949793E-05
362.5129,-7.942542E-05
362.6129,-7.941412E-05
362.7129,-7.935761E-05
362.8129,-7.930111E-05
362.9129,-7.933124E-05
363.0129,-7.929451E-05
363.1129,-7.925496E-05
363.213,-7.924649E-05
363.313,-7.922765E-05
363.413,-7.919092E-05
363.513,-7.912124E-05
363.613,-7.911747E-05
363.713,-7.908639E-05
363.813,-7.901293E-05
363.913,-7.901576E-05
364.013,-7.899127E-05
364.113,-7.89197E-05
364.213,-7.889899E-05
364.313,-7.88632E-05
364.413,-7.881047E-05
364.513,-7.878127E-05
364.613,-7.87436E-05
364.713,-7.872759E-05
364.813,-7.87031E-05
364.9131,-7.866167E-05
365.0131,-7.859857E-05
365.1131,-7.85788E-05
365.2131,-7.851852E-05
365.3131,-7.84705E-05
365.4131,-7.846296E-05
365.5131,-7.842624E-05
365.6131,-7.838951E-05
365.7131,-7.837632E-05
365.8131,-7.836126E-05
365.9131,-7.827933E-05
366.0131,-7.823035E-05
366.1131,-7.822565E-05
366.2131,-7.81569E-05
366.3131,-7.810417E-05
366.4131,-7.812394E-05
366.5132,-7.80938E-05
366.6132,-7.804955E-05
366.7132,-7.80599E-05
366.8132,-7.804389E-05
366.9132,-7.80034E-05
367.0132,-7.806178E-05
367.1132,-7.804106E-05
367.2132,-7.797327E-05
367.3132,-7.793842E-05
367.4132,-7.791111E-05
367.5132,-7.783106E-05
367.6132,-7.778114E-05
367.7132,-7.778209E-05
367.8132,-7.774725E-05
367.9132,-7.765873E-05
368.0132,-7.766155E-05
368.1133,-7.762953E-05
368.2133,-7.757585E-05
368.3133,-7.751276E-05
368.4133,-7.751841E-05
368.5133,-7.745531E-05
368.6133,-7.740164E-05
368.7133,-7.73828E-05
368.8133,-7.735266E-05
368.9133,-7.729428E-05
369.0133,-7.727074E-05
369.1133,-7.721517E-05
369.2133,-7.720764E-05
369.3133,-7.720575E-05
369.4133,-7.714736E-05
369.5133,-7.712853E-05
369.6133,-7.710404E-05
369.7133,-7.705131E-05
369.8134,-7.701552E-05
369.9134,-7.701175E-05
370.0134,-7.694771E-05
370.1134,-7.689498E-05
370.2134,-7.692041E-05
370.3134,-7.683659E-05
370.4134,-7.678763E-05
370.5134,-7.678763E-05
370.6134,-7.676408E-05
370.7134,-7.669251E-05
370.8134,-7.666332E-05
370.9134,-7.664448E-05
371.0134,-7.661623E-05
371.1134,-7.655031E-05
371.2134,-7.653148E-05
371.3134,-7.647497E-05
371.4135,-7.646178E-05
371.5135,-7.642694E-05
371.6135,-7.635631E-05
371.7135,-7.63808E-05
371.8135,-7.637608E-05
371.9135,-7.630922E-05
372.0135,-7.627815E-05
372.1135,-7.628662E-05
372.2135,-7.621034E-05
372.3135,-7.616514E-05
372.4135,-7.614631E-05
372.5135,-7.612936E-05
372.6135,-7.606061E-05
372.7135,-7.603706E-05
372.8135,-7.601916E-05
372.9135,-7.595796E-05
373.0135,-7.594289E-05
373.1136,-7.592312E-05
373.2136,-7.587414E-05
373.3136,-7.583553E-05
373.4136,-7.581011E-05
373.5136,-7.576302E-05
373.6136,-7.573665E-05
373.7136,-7.570651E-05
373.8136,-7.567168E-05
373.9136,-7.5634E-05
374.0136,-7.560669E-05
374.1136,-7.558127E-05
374.2136,-7.552947E-05
374.3136,-7.549369E-05
374.4136,-7.546166E-05
374.5136,-7.542211E-05
374.6136,-7.541834E-05
374.7137,-7.535431E-05
374.8137,-7.530816E-05
374.9137,-7.532982E-05
375.0137,-7.527238E-05
375.1137,-7.52074E-05
375.2137,-7.52187E-05
375.3137,-7.51848E-05
375.4137,-7.511887E-05
375.5137,-7.508968E-05
375.6137,-7.50586E-05
375.7137,-7.502564E-05
375.8137,-7.497102E-05
375.9137,-7.497762E-05
376.0137,-7.492111E-05
376.1137,-7.48759E-05
376.2137,-7.487685E-05
376.3138,-7.482788E-05
376.4138,-7.477608E-05
376.5138,-7.478079E-05
376.6138,-7.47224E-05
376.7138,-7.469039E-05
376.8138,-7.470828E-05
376.9138,-7.468004E-05
377.0138,-7.46207E-05
377.1138,-7.464235E-05
377.2138,-7.462165E-05
377.3138,-7.455196E-05
377.4138,-7.453406E-05
377.5138,-7.450581E-05
377.6138,-7.44851E-05
377.7138,-7.441822E-05
377.8138,-7.437303E-05
377.9138,-7.436454E-05
378.0139,-7.431088E-05
378.1139,-7.425626E-05
378.2139,-7.420446E-05
378.3139,-7.417903E-05
378.4139,-7.414607E-05
378.5139,-7.411594E-05
378.6139,-7.405943E-05
378.7139,-7.403683E-05
378.8139,-7.404059E-05
378.9139,-7.398503E-05
379.0139,-7.393888E-05
379.1139,-7.39144E-05
379.2139,-7.389651E-05
379.3139,-7.384848E-05
379.4139,-7.382776E-05
379.5139,-7.379762E-05
379.614,-7.376561E-05
379.714,-7.375337E-05
379.814,-7.372888E-05
379.914,-7.372229E-05
380.014,-7.372606E-05
380.114,-7.371663E-05
380.214,-7.368744E-05
380.314,-7.372606E-05
380.414,-7.369121E-05
380.514,-7.36008E-05
380.614,-7.361211E-05
380.714,-7.356502E-05
380.814,-7.35104E-05
380.914,-7.350474E-05
381.014,-7.345295E-05
381.114,-7.341811E-05
381.2141,-7.340398E-05
381.3141,-7.340869E-05
381.4141,-7.335312E-05
381.5141,-7.331075E-05
381.6141,-7.328626E-05
381.7141,-7.321658E-05
381.8141,-7.318739E-05
381.9141,-7.31742E-05
382.0141,-7.309604E-05
382.1141,-7.307626E-05
382.2141,-7.305649E-05
382.3141,-7.298867E-05
382.4141,-7.295101E-05
382.5141,-7.293123E-05
382.6141,-7.291241E-05
382.7141,-7.286437E-05
382.8141,-7.28446E-05
382.9142,-7.285872E-05
383.0142,-7.281351E-05
383.1142,-7.273064E-05
383.2142,-7.275795E-05
383.3142,-7.271369E-05
383.4142,-7.266754E-05
383.5142,-7.263459E-05
383.6142,-7.265059E-05
383.7142,-7.25715E-05
383.8142,-7.253382E-05
383.9142,-7.252817E-05
384.0142,-7.245661E-05
384.1142,-7.240575E-05
384.2142,-7.241988E-05
384.3142,-7.237279E-05
384.4142,-7.232006E-05
384.5143,-7.234548E-05
384.6143,-7.232758E-05
384.7143,-7.22805E-05
384.8143,-7.225413E-05
384.9143,-7.224565E-05
385.0143,-7.219292E-05
385.1143,-7.219009E-05
385.2143,-7.217313E-05
385.3143,-7.214112E-05
385.4143,-7.212888E-05
385.5143,-7.210911E-05
385.6143,-7.208932E-05
385.7143,-7.204225E-05
385.8143,-7.196501E-05
385.9143,-7.19509E-05
386.0143,-7.191793E-05
386.1143,-7.186896E-05
386.2144,-7.185013E-05
386.3144,-7.181623E-05
386.4144,-7.178703E-05
386.5144,-7.171545E-05
386.6144,-7.170039E-05
386.7144,-7.171169E-05
386.8144,-7.165613E-05
386.9144,-7.16081E-05
387.0144,-7.163164E-05
387.1144,-7.163635E-05
387.2144,-7.158738E-05
387.3144,-7.160151E-05
387.4144,-7.162129E-05
387.5144,-7.157985E-05
387.6144,-7.157514E-05
387.7144,-7.160339E-05
387.8145,-7.152335E-05
387.9145,-7.14706E-05
388.0145,-7.148567E-05
388.1145,-7.145177E-05
388.2145,-7.133971E-05
388.3145,-7.134819E-05
388.4145,-7.130581E-05
388.5145,-7.122858E-05
388.6145,-7.122293E-05
388.7145,-7.121069E-05
388.8145,-7.114571E-05
388.9145,-7.108921E-05
389.0145,-7.109485E-05
389.1145,-7.10619E-05
389.2145,-7.100539E-05
389.3145,-7.097526E-05
389.4146,-7.095171E-05
389.5146,-7.093382E-05
389.6146,-7.090368E-05
389.7146,-7.08274E-05
389.8146,-7.083306E-05
389.9146,-7.080669E-05
390.0146,-7.076996E-05
390.1146,-7.070215E-05
390.2146,-7.073418E-05
390.3146,-7.067767E-05
390.4146,-7.060893E-05
390.5146,-7.061646E-05
390.6146,-7.061551E-05
390.7146,-7.055242E-05
390.8146,-7.052417E-05
390.9146,-7.048179E-05
391.0146,-7.045636E-05
391.1147,-7.045353E-05
391.2147,-7.040927E-05
391.3147,-7.036972E-05
391.4147,-7.035655E-05
391.5147,-7.030663E-05
391.6147,-7.027932E-05
391.7147,-7.026896E-05
391.8147,-7.02473E-05
391.9147,-7.01729E-05
392.0147,-7.015878E-05
392.1147,-7.015783E-05
392.2147,-7.01004E-05
392.3147,-7.006366E-05
392.4147,-7.006648E-05
392.5147,-7.005236E-05
392.6147,-6.999303E-05
392.7148,-6.99855E-05
392.8148,-6.995819E-05
392.9148,-6.994877E-05
393.0148,-6.997796E-05
393.1148,-6.993841E-05
393.2148,-6.990922E-05
393.3148,-6.991393E-05
393.4148,-6.982258E-05
393.5148,-6.977643E-05
393.6148,-6.975007E-05
393.7148,-6.971522E-05
393.8148,-6.968415E-05
393.9148,-6.964271E-05
394.0148,-6.964647E-05
394.1148,-6.96041E-05
394.2148,-6.959845E-05
394.3148,-6.964271E-05
394.4149,-6.961257E-05
394.5149,-6.952781E-05
394.6149,-6.954289E-05
394.7149,-6.94845E-05
394.8149,-6.941387E-05
394.9149,-6.942612E-05
395.0149,-6.93762E-05
395.1149,-6.931499E-05
395.2149,-6.929615E-05
395.3149,-6.931405E-05
395.4149,-6.923588E-05
395.5149,-6.923306E-05
395.6149,-6.923494E-05
395.7149,-6.917089E-05
395.8149,-6.913229E-05
395.9149,-6.915301E-05
396.015,-6.908803E-05
396.115,-6.90353E-05
396.215,-6.904471E-05
396.315,-6.899856E-05
396.415,-6.896654E-05
396.515,-6.895242E-05
396.615,-6.891757E-05
396.715,-6.886767E-05
396.815,-6.884883E-05
396.915,-6.884412E-05
397.015,-6.878762E-05
397.115,-6.875654E-05
397.215,-6.87603E-05
397.315,-6.871793E-05
397.415,-6.871134E-05
397.515,-6.868497E-05
397.6151,-6.868779E-05
397.7151,-6.864259E-05
397.8151,-6.865859E-05
397.9151,-6.859362E-05
398.0151,-6.855407E-05
398.1151,-6.861528E-05
398.2151,-6.857102E-05
398.3151,-6.850227E-05
398.4151,-6.853523E-05
398.5151,-6.849945E-05
398.6151,-6.842317E-05
398.7151,-6.840056E-05
398.8151,-6.839868E-05
398.9151,-6.83224E-05
399.0151,-6.829792E-05
399.1151,-6.831204E-05
399.2151,-6.828285E-05
399.3152,-6.821221E-05
399.4152,-6.820374E-05
399.5152,-6.818114E-05
399.6152,-6.813122E-05
399.7152,-6.811052E-05
399.8152,-6.807378E-05
399.9152,-6.804836E-05
400.0152,-6.805213E-05
400.1152,-6.798338E-05
400.2152,-6.793535E-05
400.3152,-6.795606E-05
400.4152,-6.794947E-05
400.5152,-6.791181E-05
400.6152,-6.792499E-05
400.7152,-6.790521E-05
400.8152,-6.786566E-05
400.9153,-6.78553E-05
401.0153,-6.789297E-05
401.1153,-6.780728E-05
401.2153,-6.773382E-05
401.3153,-6.772816E-05
401.4153,-6.768201E-05
401.5153,-6.761798E-05
401.6153,-6.761139E-05
401.7153,-6.759255E-05
401.8153,-6.750215E-05
401.9153,-6.751722E-05
402.0153,-6.749933E-05
402.1153,-6.74579E-05
402.2153,-6.743717E-05
402.3153,-6.742399E-05
402.4153,-6.740233E-05
402.5154,-6.738066E-05
402.6154,-6.735713E-05
402.7154,-6.733829E-05
402.8154,-6.728178E-05
402.9154,-6.724789E-05
403.0154,-6.725636E-05
403.1154,-6.721116E-05
403.2154,-6.718761E-05
403.3154,-6.714241E-05
403.4154,-6.712546E-05
403.5154,-6.711886E-05
403.6154,-6.705106E-05
403.7154,-6.702375E-05
403.8154,-6.70407E-05
403.9154,-6.701904E-05
404.0154,-6.695971E-05
404.1154,-6.695689E-05
404.2155,-6.692298E-05
404.3155,-6.689002E-05
404.4155,-6.68486E-05
404.5155,-6.686083E-05
404.6155,-6.681375E-05
404.7155,-6.679868E-05
404.8155,-6.681846E-05
404.9155,-6.681281E-05
405.0155,-6.673652E-05
405.1155,-6.673747E-05
405.2155,-6.670357E-05
405.3155,-6.663858E-05
405.4155,-6.661975E-05
405.5155,-6.661881E-05
405.6155,-6.654724E-05
405.7155,-6.652934E-05
405.8156,-6.651616E-05
405.9156,-6.647567E-05
406.0156,-6.644364E-05
406.1156,-6.642387E-05
406.2156,-6.638055E-05
406.3156,-6.636926E-05
406.4156,-6.63363E-05
406.5156,-6.630238E-05
406.6156,-6.629485E-05
406.7156,-6.629109E-05
406.8156,-6.62553E-05
406.9156,-6.620822E-05
407.0156,-6.621762E-05
407.1156,-6.618184E-05
407.2156,-6.612911E-05
407.3156,-6.614606E-05
407.4156,-6.611311E-05
407.5157,-6.610274E-05
407.6157,-6.612346E-05
407.7157,-6.612911E-05
407.8157,-6.613005E-05
407.9157,-6.613476E-05
408.0157,-6.617054E-05
408.1157,-6.615547E-05
408.2157,-6.613664E-05
408.3157,-6.611122E-05
408.4157,-6.606131E-05
408.5157,-6.602457E-05
408.6157,-6.598973E-05
408.7157,-6.594547E-05
408.8157,-6.591817E-05
408.9157,-6.590403E-05
409.0157,-6.585036E-05
409.1158,-6.581645E-05
409.2158,-6.579856E-05
409.3158,-6.578444E-05
409.4158,-6.575994E-05
409.5158,-6.573169E-05
409.6158,-6.572322E-05
409.7158,-6.570533E-05
409.8158,-6.567896E-05
409.9158,-6.566107E-05
410.0158,-6.561021E-05
410.1158,-6.556501E-05
410.2158,-6.556784E-05
410.3158,-6.553299E-05
410.4158,-6.548403E-05
410.5158,-6.548967E-05
410.6158,-6.545859E-05
410.7159,-6.543694E-05
410.8159,-6.541622E-05
410.9159,-6.537195E-05
411.0159,-6.534276E-05
411.1159,-6.531922E-05
411.2159,-6.530603E-05
411.3159,-6.52919E-05
411.4159,-6.524765E-05
411.5159,-6.52241E-05
411.6159,-6.524388E-05
411.7159,-6.518738E-05
411.8159,-6.520433E-05
411.9159,-6.518738E-05
412.0159,-6.512993E-05
412.1159,-6.51723E-05
412.2159,-6.512993E-05
412.3159,-6.509508E-05
412.416,-6.508191E-05
412.516,-6.503482E-05
412.616,-6.49849E-05
412.716,-6.49689E-05
412.816,-6.496136E-05
412.916,-6.490298E-05
413.016,-6.488979E-05
413.116,-6.487943E-05
413.216,-6.482576E-05
413.316,-6.479091E-05
413.416,-6.478526E-05
413.516,-6.476831E-05
413.616,-6.471275E-05
413.716,-6.472687E-05
413.816,-6.468261E-05
413.916,-6.463082E-05
414.0161,-6.463082E-05
414.1161,-6.463176E-05
414.2161,-6.456961E-05
414.3161,-6.454794E-05
414.4161,-6.456018E-05
414.5161,-6.451028E-05
414.6161,-6.445188E-05
414.7161,-6.445942E-05
414.8161,-6.443493E-05
414.9161,-6.440856E-05
415.0161,-6.441327E-05
415.1161,-6.440856E-05
415.2161,-6.434359E-05
415.3161,-6.436524E-05
415.4161,-6.434735E-05
415.5161,-6.427107E-05
415.6161,-6.426166E-05
415.7162,-6.422587E-05
415.8162,-6.419291E-05
415.9162,-6.417407E-05
416.0162,-6.417878E-05
416.1162,-6.412981E-05
416.2162,-6.412416E-05
416.3162,-6.412416E-05
416.4162,-6.405918E-05
416.5162,-6.404318E-05
416.6162,-6.405447E-05
416.7162,-6.400833E-05
416.8162,-6.394146E-05
416.9162,-6.3949E-05
417.0162,-6.392075E-05
417.1162,-6.388684E-05
417.2162,-6.386895E-05
417.3163,-6.382658E-05
417.4163,-6.377289E-05
417.5163,-6.379173E-05
417.6163,-6.376442E-05
417.7163,-6.372769E-05
417.8163,-6.374558E-05
417.9163,-6.370603E-05
418.0163,-6.368061E-05
418.1163,-6.368814E-05
418.2163,-6.365706E-05
418.3163,-6.359961E-05
418.4163,-6.358831E-05
418.5163,-6.360056E-05
418.6163,-6.355442E-05
418.7163,-6.349979E-05
418.8163,-6.350638E-05
418.9164,-6.347154E-05
419.0164,-6.342728E-05
419.1164,-6.342822E-05
419.2164,-6.340185E-05
419.3164,-6.335571E-05
419.4164,-6.335288E-05
419.5164,-6.331428E-05
419.6164,-6.330109E-05
419.7164,-6.327943E-05
419.8164,-6.324458E-05
419.9164,-6.323799E-05
420.0164,-6.321351E-05
420.1164,-6.317113E-05
420.2164,-6.314382E-05
420.3164,-6.313912E-05
420.4164,-6.31118E-05
420.5164,-6.310238E-05
420.6165,-6.309485E-05
420.7165,-6.311275E-05
420.8165,-6.305059E-05
420.9165,-6.303458E-05
421.0165,-6.303081E-05
421.1165,-6.298748E-05
421.2165,-6.29244E-05
421.3165,-6.294794E-05
421.4165,-6.291686E-05
421.5165,-6.285565E-05
421.6165,-6.284624E-05
421.7165,-6.284905E-05
421.8165,-6.275112E-05
421.9165,-6.274736E-05
422.0165,-6.276713E-05
422.1165,-6.272757E-05
422.2166,-6.266071E-05
422.3166,-6.268991E-05
422.4166,-6.266824E-05
422.5166,-6.261362E-05
422.6166,-6.25929E-05
422.7166,-6.256465E-05
422.8166,-6.253357E-05
422.9166,-6.253923E-05
423.0166,-6.247142E-05
423.1166,-6.244976E-05
423.2166,-6.244882E-05
423.3166,-6.244882E-05
423.4166,-6.239985E-05
423.5166,-6.24168E-05
423.6166,-6.23989E-05
423.7166,-6.234806E-05
423.8167,-6.236312E-05
423.9167,-6.236784E-05
424.0167,-6.233488E-05
424.1167,-6.232734E-05
424.2167,-6.235936E-05
424.3167,-6.232922E-05
424.4167,-6.228872E-05
424.5167,-6.229344E-05
424.6167,-6.228308E-05
424.7167,-6.22294E-05
424.8167,-6.221716E-05
424.9167,-6.217666E-05
425.0167,-6.212015E-05
425.1167,-6.210321E-05
425.2167,-6.207683E-05
425.3167,-6.20467E-05
425.4167,-6.204858E-05
425.5168,-6.200809E-05
425.6168,-6.19789E-05
425.7168,-6.193558E-05
425.8168,-6.194029E-05
425.9168,-6.186495E-05
426.0168,-6.184517E-05
426.1168,-6.185553E-05
426.2168,-6.180561E-05
426.3168,-6.175853E-05
426.4168,-6.178019E-05
426.5168,-6.176136E-05
426.6168,-6.172369E-05
426.7168,-6.171427E-05
426.8168,-6.168414E-05
426.9168,-6.165494E-05
427.0168,-6.164081E-05
427.1169,-6.162104E-05
427.2169,-6.158902E-05
427.3169,-6.156171E-05
427.4169,-6.155417E-05
427.5169,-6.154193E-05
427.6169,-6.15118E-05
427.7169,-6.149579E-05
427.8169,-6.146188E-05
427.9169,-6.143175E-05
428.0169,-6.14148E-05
428.1169,-6.139596E-05
428.2169,-6.133946E-05
428.3169,-6.133004E-05
428.4169,-6.130744E-05
428.5169,-6.130368E-05
428.6169,-6.127166E-05
428.7169,-6.125471E-05
428.817,-6.122646E-05
428.917,-6.118878E-05
429.017,-6.114547E-05
429.117,-6.113604E-05
429.217,-6.114547E-05
429.317,-6.109838E-05
429.417,-6.106636E-05
429.517,-6.106353E-05
429.617,-6.106071E-05
429.717,-6.102022E-05
429.817,-6.097878E-05
429.917,-6.100703E-05
430.017,-6.094488E-05
430.117,-6.091662E-05
430.217,-6.090909E-05
430.317,-6.088649E-05
430.4171,-6.083281E-05
430.5171,-6.080173E-05
430.6171,-6.082904E-05
430.7171,-6.078855E-05
430.8171,-6.073675E-05
430.9171,-6.074147E-05
431.0171,-6.071227E-05
431.1171,-6.068308E-05
431.2171,-6.067648E-05
431.3171,-6.068308E-05
431.4171,-6.064541E-05
431.5171,-6.064541E-05
431.6171,-6.059738E-05
431.7171,-6.0555E-05
431.8171,-6.062563E-05
431.9171,-6.056818E-05
432.0172,-6.052486E-05
432.1172,-6.051168E-05
432.2172,-6.050415E-05
432.3172,-6.045329E-05
432.4172,-6.044388E-05
432.5172,-6.040338E-05
432.6172,-6.037607E-05
432.7172,-6.035159E-05
432.8172,-6.031863E-05
432.9172,-6.029508E-05
433.0172,-6.028566E-05
433.1172,-6.026118E-05
433.2172,-6.022634E-05
433.3172,-6.021786E-05
433.4172,-6.021032E-05
433.5172,-6.015194E-05
433.6172,-6.014723E-05
433.7173,-6.015571E-05
433.8173,-6.009638E-05
433.9173,-6.005589E-05
434.0173,-6.007095E-05
434.1173,-6.005871E-05
434.2173,-6.001445E-05
434.3173,-6.000126E-05
434.4173,-5.998243E-05
434.5173,-5.995324E-05
434.6173,-5.994099E-05
434.7173,-5.992121E-05
434.8173,-5.991368E-05
434.9173,-5.987413E-05
435.0173,-5.984211E-05
435.1173,-5.98374E-05
435.2173,-5.982045E-05
435.3174,-5.976301E-05
435.4174,-5.976394E-05
435.5174,-5.974323E-05
435.6174,-5.971215E-05
435.7174,-5.969991E-05
435.8174,-5.963681E-05
435.9174,-5.96547E-05
436.0174,-5.961892E-05
436.1174,-5.957654E-05
436.2174,-5.956995E-05
436.3174,-5.956336E-05
436.4174,-5.951344E-05
436.5174,-5.949838E-05
436.6174,-5.948331E-05
436.7174,-5.946542E-05
436.8174,-5.941644E-05
436.9174,-5.941174E-05
437.0175,-5.940232E-05
437.1175,-5.935523E-05
437.2175,-5.935618E-05
437.3175,-5.93477E-05
437.4175,-5.933263E-05
437.5175,-5.932039E-05
437.6175,-5.933357E-05
437.7175,-5.92846E-05
437.8175,-5.931286E-05
437.9175,-5.925071E-05
438.0175,-5.924223E-05
438.1175,-5.9262E-05
438.2175,-5.920173E-05
438.3175,-5.918102E-05
438.4175,-5.91942E-05
438.5175,-5.91537E-05
438.6176,-5.910285E-05
438.7176,-5.908213E-05
438.8176,-5.907836E-05
438.9176,-5.904352E-05
439.0176,-5.899173E-05
439.1176,-5.899455E-05
439.2176,-5.899078E-05
439.3176,-5.890791E-05
439.4176,-5.891733E-05
439.5176,-5.891168E-05
439.6176,-5.885706E-05
439.7176,-5.883916E-05
439.8176,-5.882128E-05
439.9176,-5.878643E-05
440.0176,-5.877983E-05
440.1176,-5.877419E-05
440.2177,-5.872051E-05
440.3177,-5.869885E-05
440.4177,-5.869602E-05
440.5177,-5.867342E-05
440.6177,-5.864517E-05
440.7177,-5.862445E-05
440.8177,-5.861503E-05
440.9177,-5.858113E-05
441.0177,-5.856606E-05
441.1177,-5.853781E-05
441.2177,-5.850108E-05
441.3177,-5.853875E-05
441.4177,-5.849449E-05
441.5177,-5.845776E-05
441.6177,-5.846153E-05
441.7177,-5.848037E-05
441.8177,-5.844835E-05
441.9178,-5.840032E-05
442.0178,-5.840785E-05
442.1178,-5.839561E-05
442.2178,-5.837772E-05
442.3178,-5.833628E-05
442.4178,-5.830614E-05
442.5178,-5.830426E-05
442.6178,-5.830144E-05
442.7178,-5.82374E-05
442.8178,-5.824305E-05
442.9178,-5.821856E-05
443.0178,-5.818561E-05
443.1178,-5.81404E-05
443.2178,-5.815358E-05
443.3178,-5.813193E-05
443.4178,-5.807542E-05
443.5179,-5.807919E-05
443.6179,-5.8066E-05
443.7179,-5.803022E-05
443.8179,-5.799725E-05
443.9179,-5.798125E-05
444.0179,-5.798219E-05
444.1179,-5.797936E-05
444.2179,-5.79577E-05
444.3179,-5.795111E-05
444.4179,-5.792851E-05
444.5179,-5.789461E-05
444.6179,-5.787766E-05
444.7179,-5.787201E-05
444.8179,-5.790874E-05
444.9179,-5.788048E-05
445.0179,-5.790214E-05
445.118,-5.796618E-05
445.218,-5.794264E-05
445.318,-5.792192E-05
445.418,-5.794075E-05
445.518,-5.792757E-05
445.618,-5.786259E-05
445.718,-5.787389E-05
445.818,-5.785317E-05
445.918,-5.782398E-05
446.018,-5.776277E-05
446.118,-5.773452E-05
446.218,-5.772227E-05
446.318,-5.76912E-05
446.418,-5.766483E-05
446.518,-5.767518E-05
446.618,-5.764317E-05
446.718,-5.759608E-05
446.8181,-5.759231E-05
446.9181,-5.754429E-05
447.0181,-5.754993E-05
447.1181,-5.751415E-05
447.2181,-5.748778E-05
447.3181,-5.750473E-05
447.4181,-5.750097E-05
447.5181,-5.74454E-05
447.6181,-5.744446E-05
447.7181,-5.74454E-05
447.8181,-5.740491E-05
447.9181,-5.736441E-05
448.0181,-5.738984E-05
448.1181,-5.736347E-05
448.2181,-5.731827E-05
448.3181,-5.73145E-05
448.4182,-5.729378E-05
448.5182,-5.725423E-05
448.6182,-5.724482E-05
448.7182,-5.718266E-05
448.8182,-5.717795E-05
448.9182,-5.719584E-05
449.0182,-5.715158E-05
449.1182,-5.711014E-05
449.2182,-5.717701E-05
449.3182,-5.712427E-05
449.4182,-5.708754E-05
449.5182,-5.709791E-05
449.6182,-5.705929E-05
449.7182,-5.702539E-05
449.8182,-5.702257E-05
449.9182,-5.703857E-05
450.0182,-5.6967E-05
450.1183,-5.693687E-05
450.2183,-5.696324E-05
450.3183,-5.690956E-05
450.4183,-5.686907E-05
450.5183,-5.69039E-05
450.6183,-5.689543E-05
450.7183,-5.684929E-05
450.8183,-5.689543E-05
450.9183,-5.686436E-05
451.0183,-5.681915E-05
451.1183,-5.681633E-05
451.2183,-5.680691E-05
451.3183,-5.678054E-05
451.4183,-5.675888E-05
451.5183,-5.67617E-05
451.6183,-5.675417E-05
451.7184,-5.671179E-05
451.8184,-5.667883E-05
451.9184,-5.670144E-05
452.0184,-5.664117E-05
452.1184,-5.66148E-05
452.2184,-5.663363E-05
452.3184,-5.660632E-05
452.4184,-5.657336E-05
452.5184,-5.655735E-05
452.6184,-5.652627E-05
452.7184,-5.649991E-05
452.8184,-5.648013E-05
452.9184,-5.645847E-05
453.0184,-5.643775E-05
453.1184,-5.645282E-05
453.2184,-5.64321E-05
453.3185,-5.641138E-05
453.4185,-5.64208E-05
453.5185,-5.638972E-05
453.6185,-5.635959E-05
453.7185,-5.636241E-05
453.8185,-5.631815E-05
453.9185,-5.627483E-05
454.0185,-5.63125E-05
454.1185,-5.625882E-05
454.2185,-5.62221E-05
454.3185,-5.624375E-05
454.4185,-5.624187E-05
454.5185,-5.619384E-05
454.6185,-5.61816E-05
454.7185,-5.61929E-05
454.8185,-5.614205E-05
454.9185,-5.611474E-05
455.0186,-5.61072E-05
455.1186,-5.607707E-05
455.2186,-5.607142E-05
455.3186,-5.606294E-05
455.4186,-5.605729E-05
455.5186,-5.601868E-05
455.6186,-5.599137E-05
455.7186,-5.598101E-05
455.8186,-5.59716E-05
455.9186,-5.593957E-05
456.0186,-5.591415E-05
456.1186,-5.591509E-05
456.2186,-5.589908E-05
456.3186,-5.588401E-05
456.4186,-5.583975E-05
456.5186,-5.583692E-05
456.6187,-5.583222E-05
456.7187,-5.580491E-05
456.8187,-5.578607E-05
456.9187,-5.57776E-05
457.0187,-5.576159E-05
457.1187,-5.577195E-05
457.2187,-5.572957E-05
457.3187,-5.571544E-05
457.4187,-5.569943E-05
457.5187,-5.566271E-05
457.6187,-5.565329E-05
457.7187,-5.5658E-05
457.8187,-5.565894E-05
457.9187,-5.563257E-05
458.0187,-5.563916E-05
458.1187,-5.567024E-05
458.2188,-5.564858E-05
458.3188,-5.560903E-05
458.4188,-5.566741E-05
458.5188,-5.562409E-05
458.6188,-5.557512E-05
458.7188,-5.563163E-05
458.8188,-5.560244E-05
458.9188,-5.558548E-05
459.0188,-5.559114E-05
459.1188,-5.559302E-05
459.2188,-5.553934E-05
459.3188,-5.554405E-05
459.4188,-5.555535E-05
459.5188,-5.554028E-05
459.6188,-5.54866E-05
459.7188,-5.548472E-05
459.8188,-5.544328E-05
459.9189,-5.539525E-05
460.0189,-5.540844E-05
460.1189,-5.537736E-05
460.2189,-5.535947E-05
460.3189,-5.536606E-05
460.4189,-5.533969E-05
460.5189,-5.531897E-05
460.6189,-5.529731E-05
460.7189,-5.529072E-05
460.8189,-5.524364E-05
460.9189,-5.523233E-05
461.0189,-5.523987E-05
461.1189,-5.521256E-05
461.2189,-5.5173E-05
461.3189,-5.521162E-05
461.4189,-5.514946E-05
461.519,-5.511838E-05
461.619,-5.51504E-05
461.719,-5.509013E-05
461.819,-5.508542E-05
461.919,-5.509202E-05
462.019,-5.507601E-05
462.119,-5.500914E-05
462.219,-5.502138E-05
462.319,-5.502045E-05
462.419,-5.497148E-05
462.519,-5.493192E-05
462.619,-5.496582E-05
462.719,-5.492156E-05
462.819,-5.487165E-05
462.919,-5.49112E-05
463.019,-5.486035E-05
463.119,-5.480856E-05
463.2191,-5.482174E-05
463.3191,-5.481421E-05
463.4191,-5.477277E-05
463.5191,-5.477936E-05
463.6191,-5.474829E-05
463.7191,-5.472474E-05
463.8191,-5.46946E-05
463.9191,-5.47012E-05
464.0191,-5.470497E-05
464.1191,-5.46786E-05
464.2191,-5.469084E-05
464.3191,-5.467389E-05
464.4191,-5.462021E-05
464.5191,-5.465976E-05
464.6191,-5.464281E-05
464.7191,-5.461173E-05
464.8192,-5.462115E-05
464.9192,-5.460891E-05
465.0192,-5.459196E-05
465.1192,-5.454864E-05
465.2192,-5.452321E-05
465.3192,-5.453263E-05
465.4192,-5.448648E-05
465.5192,-5.447518E-05
465.6192,-5.447236E-05
465.7192,-5.443657E-05
465.8192,-5.443092E-05
465.9192,-5.439514E-05
466.0192,-5.435464E-05
466.1192,-5.438384E-05
466.2192,-5.43424E-05
466.3192,-5.429249E-05
466.4193,-5.432074E-05
466.5193,-5.429531E-05
466.6193,-5.424728E-05
466.7193,-5.42567E-05
466.8193,-5.426141E-05
466.9193,-5.422657E-05
467.0193,-5.418419E-05
467.1193,-5.419172E-05
467.2193,-5.419266E-05
467.3193,-5.4171E-05
467.4193,-5.413993E-05
467.5193,-5.414369E-05
467.6193,-5.409755E-05
467.7193,-5.409943E-05
467.8193,-5.406459E-05
467.9193,-5.406553E-05
468.0193,-5.404387E-05
468.1194,-5.40401E-05
468.2194,-5.402692E-05
468.3194,-5.403069E-05
468.4194,-5.396665E-05
468.5194,-5.396947E-05
468.6194,-5.394216E-05
468.7194,-5.389978E-05
468.8194,-5.390544E-05
468.9194,-5.390355E-05
469.0194,-5.389225E-05
469.1194,-5.387247E-05
469.2194,-5.386871E-05
469.3194,-5.385458E-05
469.4194,-5.38235E-05
469.5194,-5.382727E-05
469.6194,-5.381974E-05
469.7195,-5.375852E-05
469.8195,-5.375946E-05
469.9195,-5.378112E-05
470.0195,-5.376135E-05
470.1195,-5.368789E-05
470.2195,-5.372086E-05
470.3195,-5.370108E-05
470.4195,-5.367377E-05
470.5195,-5.366623E-05
470.6195,-5.36813E-05
470.7195,-5.364835E-05
470.8195,-5.361162E-05
470.9195,-5.361726E-05
471.0195,-5.361821E-05
471.1195,-5.354287E-05
471.2195,-5.358336E-05
471.3195,-5.356924E-05
471.4196,-5.350426E-05
471.5196,-5.348354E-05
471.6196,-5.349767E-05
471.7196,-5.344681E-05
471.8196,-5.343269E-05
471.9196,-5.343645E-05
472.0196,-5.343457E-05
472.1196,-5.341291E-05
472.2196,-5.341103E-05
472.3196,-5.3379E-05
472.4196,-5.334134E-05
472.5196,-5.334981E-05
472.6196,-5.333098E-05
472.7196,-5.329708E-05
472.8196,-5.335169E-05
472.9196,-5.334134E-05
473.0197,-5.328106E-05
473.1197,-5.336017E-05
473.2197,-5.330555E-05
473.3197,-5.326129E-05
473.4197,-5.330178E-05
473.5197,-5.328484E-05
473.6197,-5.325187E-05
473.7197,-5.326035E-05
473.8197,-5.328295E-05
473.9197,-5.323869E-05
474.0197,-5.322174E-05
474.1197,-5.324246E-05
474.2197,-5.322456E-05
474.3197,-5.315393E-05
474.4197,-5.319066E-05
474.5197,-5.312945E-05
474.6198,-5.309084E-05
474.7198,-5.310497E-05
474.8198,-5.307765E-05
474.9198,-5.304469E-05
475.0198,-5.300985E-05
475.1198,-5.304281E-05
475.2198,-5.297971E-05
475.3198,-5.295805E-05
475.4198,-5.299761E-05
475.5198,-5.295805E-05
475.6198,-5.292697E-05
475.7198,-5.294299E-05
475.8198,-5.294864E-05
475.9198,-5.293357E-05
476.0198,-5.291661E-05
476.1198,-5.288648E-05
476.2198,-5.288366E-05
476.3199,-5.288271E-05
476.4199,-5.285164E-05
476.5199,-5.282904E-05
476.6199,-5.28328E-05
476.7199,-5.281491E-05
476.8199,-5.276877E-05
476.9199,-5.276594E-05
477.0199,-5.276594E-05
477.1199,-5.269437E-05
477.2199,-5.27132E-05
477.3199,-5.272827E-05
477.4199,-5.268777E-05
477.5199,-5.266329E-05
477.6199,-5.269342E-05
477.7199,-5.268589E-05
477.8199,-5.262656E-05
477.92,-5.264351E-05
478.02,-5.262845E-05
478.12,-5.260302E-05
478.22,-5.262939E-05
478.32,-5.260867E-05
478.42,-5.255593E-05
478.52,-5.256912E-05
478.62,-5.255028E-05
478.72,-5.252391E-05
478.82,-5.25079E-05
478.92,-5.248531E-05
479.02,-5.247494E-05
479.12,-5.244293E-05
479.22,-5.2458E-05
479.32,-5.24062E-05
479.42,-5.239961E-05
479.5201,-5.243351E-05
479.6201,-5.240055E-05
479.7201,-5.235252E-05
479.8201,-5.240996E-05
479.9201,-5.236758E-05
480.0201,-5.235346E-05
480.1201,-5.233463E-05
480.2201,-5.230826E-05
480.3201,-5.228565E-05
480.4201,-5.229413E-05
480.5201,-5.22574E-05
480.6201,-5.223574E-05
480.7201,-5.224516E-05
480.8201,-5.224139E-05
480.9201,-5.219148E-05
481.0201,-5.218866E-05
481.1201,-5.218677E-05
481.2202,-5.216605E-05
481.3202,-5.212368E-05
481.4202,-5.215946E-05
481.5202,-5.212556E-05
481.6202,-5.210013E-05
481.7202,-5.211332E-05
481.8202,-5.208695E-05
481.9202,-5.20587E-05
482.0202,-5.203045E-05
482.1202,-5.205776E-05
482.2202,-5.205023E-05
482.3202,-5.199089E-05
482.4202,-5.200879E-05
482.5202,-5.200973E-05
482.6202,-5.195605E-05
482.7202,-5.195228E-05
482.8203,-5.197206E-05
482.9203,-5.191273E-05
483.0203,-5.189013E-05
483.1203,-5.189201E-05
483.2203,-5.187789E-05
483.3203,-5.185529E-05
483.4203,-5.186565E-05
483.5203,-5.181856E-05
483.6203,-5.180726E-05
483.7203,-5.181291E-05
483.8203,-5.17969E-05
483.9203,-5.177712E-05
484.0203,-5.178371E-05
484.1203,-5.17564E-05
484.2203,-5.171685E-05
484.3203,-5.173097E-05
484.4203,-5.171591E-05
484.5204,-5.170931E-05
484.6204,-5.174793E-05
484.7204,-5.175829E-05
484.8204,-5.171309E-05
484.9204,-5.179596E-05
485.0204,-5.175735E-05
485.1204,-5.174416E-05
485.2204,-5.179031E-05
485.3204,-5.17451E-05
485.4204,-5.171591E-05
485.5204,-5.169519E-05
485.6204,-5.166788E-05
485.7204,-5.163586E-05
485.8204,-5.16142E-05
485.9204,-5.16142E-05
486.0204,-5.161985E-05
486.1205,-5.159725E-05
486.2205,-5.159254E-05
486.3205,-5.158689E-05
486.4205,-5.158218E-05
486.5205,-5.153416E-05
486.6205,-5.151532E-05
486.7205,-5.15059E-05
486.8205,-5.148612E-05
486.9205,-5.146259E-05
487.0205,-5.144563E-05
487.1205,-5.143904E-05
487.2205,-5.140984E-05
487.3205,-5.137971E-05
487.4205,-5.138536E-05
487.5205,-5.138065E-05
487.6205,-5.133074E-05
487.7206,-5.132415E-05
487.8206,-5.132321E-05
487.9206,-5.131097E-05
488.0206,-5.129213E-05
488.1206,-5.129589E-05
488.2206,-5.128931E-05
488.3206,-5.122432E-05
488.4206,-5.124787E-05
488.5206,-5.12394E-05
488.6206,-5.118948E-05
488.7206,-5.119042E-05
488.8206,-5.119513E-05
488.9206,-5.113769E-05
489.0206,-5.117536E-05
489.1206,-5.119513E-05
489.2206,-5.113015E-05
489.3206,-5.10906E-05
489.4207,-5.113674E-05
489.5207,-5.110755E-05
489.6207,-5.107082E-05
489.7207,-5.108213E-05
489.8207,-5.108589E-05
489.9207,-5.105105E-05
490.0207,-5.104163E-05
490.1207,-5.101432E-05
490.2207,-5.098136E-05
490.3207,-5.101432E-05
490.4207,-5.098136E-05
490.5207,-5.094652E-05
490.6207,-5.096064E-05
490.7207,-5.094557E-05
490.8207,-5.092015E-05
490.9207,-5.091261E-05
491.0208,-5.093427E-05
491.1208,-5.089378E-05
491.2208,-5.087212E-05
491.3208,-5.088813E-05
491.4208,-5.085234E-05
491.5208,-5.083445E-05
491.6208,-5.081938E-05
491.7208,-5.083257E-05
491.8208,-5.081373E-05
491.9208,-5.081279E-05
492.0208,-5.080714E-05
492.1208,-5.078736E-05
492.2208,-5.080996E-05
492.3208,-5.078925E-05
492.4208,-5.076099E-05
492.5208,-5.0777E-05
492.6208,-5.074969E-05
492.7209,-5.071862E-05
492.8209,-5.072992E-05
492.9209,-5.069413E-05
493.0209,-5.067153E-05
493.1209,-5.066023E-05
493.2209,-5.064705E-05
493.3209,-5.059808E-05
493.4209,-5.060373E-05
493.5209,-5.062632E-05
493.6209,-5.05783E-05
493.7209,-5.054063E-05
493.8209,-5.058112E-05
493.9209,-5.061502E-05
494.0209,-5.056135E-05
494.1209,-5.059431E-05
494.2209,-5.058018E-05
494.321,-5.051897E-05
494.421,-5.054251E-05
494.521,-5.051897E-05
494.621,-5.045587E-05
494.721,-5.044457E-05
494.821,-5.046529E-05
494.921,-5.043421E-05
495.021,-5.041067E-05
495.121,-5.04069E-05
495.221,-5.038053E-05
495.321,-5.034192E-05
495.421,-5.03617E-05
495.521,-5.033251E-05
495.621,-5.030048E-05
495.721,-5.032309E-05
495.821,-5.031367E-05
495.9211,-5.027788E-05
496.0211,-5.027883E-05
496.1211,-5.024869E-05
496.2211,-5.023928E-05
496.3211,-5.024492E-05
496.4211,-5.020725E-05
496.5211,-5.017524E-05
496.6211,-5.021008E-05
496.7211,-5.019878E-05
496.8211,-5.016017E-05
496.9211,-5.017524E-05
497.0211,-5.019313E-05
497.1211,-5.014228E-05
497.2211,-5.017053E-05
497.3211,-5.019031E-05
497.4211,-5.01564E-05
497.5211,-5.010084E-05
497.6212,-5.013003E-05
497.7212,-5.012438E-05
497.8212,-5.007541E-05
497.9212,-5.004528E-05
498.0212,-5.006788E-05
498.1212,-5.00255E-05
498.2212,-5.000196E-05
498.3212,-5.00029E-05
498.4212,-4.999819E-05
498.5212,-4.998124E-05
498.6212,-4.995204E-05
498.7212,-4.994545E-05
498.8212,-4.994074E-05
498.9212,-4.991155E-05
499.0212,-4.989743E-05
499.1212,-4.989648E-05
499.2213,-4.989743E-05
499.3213,-4.984375E-05
499.4213,-4.985128E-05
499.5213,-4.986447E-05
499.6213,-4.983339E-05
499.7213,-4.978724E-05
499.8213,-4.983904E-05
499.9213,-4.980984E-05
500.0213,-4.975052E-05
500.1213,-4.977123E-05
500.2213,-4.977123E-05
500.3213,-4.974863E-05
500.4213,-4.973451E-05
500.5213,-4.973357E-05
500.6213,-4.970532E-05
500.7213,-4.970248E-05
500.8214,-4.966106E-05
500.9214,-4.963845E-05
501.0214,-4.966482E-05
501.1214,-4.964787E-05
501.2214,-4.959325E-05
501.3214,-4.962338E-05
501.4214,-4.963186E-05
501.5214,-4.956123E-05
501.6214,-4.956029E-05
501.7214,-4.960737E-05
501.8214,-4.957064E-05
501.9214,-4.949719E-05
502.0214,-4.957253E-05
502.1214,-4.953109E-05
502.2214,-4.947365E-05
502.3214,-4.951132E-05
502.4214,-4.949154E-05
502.5215,-4.945858E-05
502.6215,-4.948871E-05
502.7215,-4.946423E-05
502.8215,-4.947365E-05
502.9215,-4.948966E-05
503.0215,-4.952168E-05
503.1215,-4.953863E-05
503.2215,-4.951038E-05
503.3215,-4.95245E-05
503.4215,-4.951132E-05
503.5215,-4.950755E-05
503.6215,-4.954616E-05
503.7215,-4.952733E-05
503.8215,-4.947741E-05
503.9215,-4.948401E-05
504.0215,-4.943692E-05
504.1216,-4.939266E-05
504.2216,-4.940019E-05
504.3216,-4.937194E-05
504.4216,-4.933427E-05
504.5216,-4.932109E-05
504.6216,-4.931826E-05
504.7216,-4.930225E-05
504.8216,-4.931732E-05
504.9216,-4.932391E-05
505.0216,-4.931073E-05
505.1216,-4.931638E-05
505.2216,-4.93079E-05
505.3216,-4.928248E-05
505.4216,-4.926458E-05
505.5216,-4.929566E-05
505.6216,-4.92222E-05
505.7216,-4.922503E-05
505.8217,-4.923821E-05
505.9217,-4.920996E-05
506.0217,-4.916947E-05
506.1217,-4.917229E-05
506.2217,-4.917229E-05
506.3217,-4.913839E-05
506.4217,-4.911014E-05
506.5217,-4.913933E-05
506.6217,-4.910731E-05
506.7217,-4.906776E-05
506.8217,-4.907058E-05
506.9217,-4.907341E-05
507.0217,-4.904704E-05
507.1217,-4.906023E-05
507.2217,-4.90122E-05
507.3217,-4.898583E-05
507.4218,-4.901879E-05
507.5218,-4.900467E-05
507.6218,-4.897076E-05
507.7218,-4.896041E-05
507.8218,-4.895758E-05
507.9218,-4.895193E-05
508.0218,-4.895475E-05
508.1218,-4.894628E-05
508.2218,-4.892179E-05
508.3218,-4.890296E-05
508.4218,-4.888694E-05
508.5218,-4.888412E-05
508.6218,-4.887753E-05
508.7218,-4.888977E-05
508.8218,-4.887565E-05
508.9218,-4.885305E-05
509.0219,-4.885869E-05
509.1219,-4.883798E-05
509.2219,-4.881161E-05
509.3219,-4.883515E-05
509.4219,-4.880125E-05
509.5219,-4.876358E-05
509.6219,-4.879748E-05
509.7219,-4.876829E-05
509.8219,-4.87391E-05
509.9219,-4.874004E-05
510.0219,-4.875699E-05
510.1219,-4.870519E-05
510.2219,-4.869672E-05
510.3219,-4.869295E-05
510.4219,-4.867788E-05
510.5219,-4.864398E-05
510.6219,-4.868636E-05
510.722,-4.866093E-05
510.822,-4.863833E-05
510.922,-4.863739E-05
511.022,-4.86421E-05
511.122,-4.860914E-05
511.222,-4.858653E-05
511.322,-4.857147E-05
511.422,-4.856581E-05
511.522,-4.857335E-05
511.622,-4.855828E-05
511.722,-4.853192E-05
511.822,-4.851779E-05
511.922,-4.85112E-05
512.022,-4.84886E-05
512.122,-4.84999E-05
512.222,-4.850178E-05
512.322,-4.850178E-05
512.4219,-4.850649E-05
512.5219,-4.854133E-05
512.6219,-4.850178E-05
512.7219,-4.84999E-05
512.8218,-4.850837E-05
512.9218,-4.844904E-05
513.0218,-4.843868E-05
513.1218,-4.844339E-05
513.2217,-4.843868E-05
513.3217,-4.83916E-05
513.4217,-4.839348E-05
513.5217,-4.840667E-05
513.6216,-4.834545E-05
513.7216,-4.83511E-05
513.8216,-4.836711E-05
513.9216,-4.834357E-05
514.0215,-4.833792E-05
514.1215,-4.83398E-05
514.2215,-4.831249E-05
514.3215,-4.830872E-05
514.4214,-4.834922E-05
514.5214,-4.834922E-05
514.6214,-4.83172E-05
514.7214,-4.830872E-05
514.8214,-4.833038E-05
514.9213,-4.831344E-05
515.0213,-4.828141E-05
515.1213,-4.831155E-05
515.2213,-4.830119E-05
515.3212,-4.823339E-05
515.4212,-4.826823E-05
515.5212,-4.825222E-05
515.6212,-4.81863E-05
515.7211,-4.820702E-05
515.8211,-4.82202E-05
515.9211,-4.817217E-05
516.0211,-4.816276E-05
516.121,-4.816088E-05
516.221,-4.813733E-05
516.321,-4.812038E-05
516.421,-4.812415E-05
516.5209,-4.812226E-05
516.6209,-4.809213E-05
516.7209,-4.806764E-05
516.8209,-4.806576E-05
516.9208,-4.804693E-05
517.0208,-4.806482E-05
517.1208,-4.803656E-05
517.2208,-4.803751E-05
517.3207,-4.803091E-05
517.4207,-4.799607E-05
517.5207,-4.801396E-05
517.6207,-4.803468E-05
517.7206,-4.800078E-05
517.8206,-4.796499E-05
517.9206,-4.801585E-05
518.0206,-4.796876E-05
518.1205,-4.793015E-05
518.2205,-4.794521E-05
518.3205,-4.79584E-05
518.4205,-4.789342E-05
518.5204,-4.79019E-05
518.6204,-4.791791E-05
518.7204,-4.788024E-05
518.8204,-4.785952E-05
518.9203,-4.789719E-05
519.0203,-4.78906E-05
519.1203,-4.785104E-05
519.2203,-4.787835E-05
519.3203,-4.791414E-05
519.4202,-4.78614E-05
519.5202,-4.791038E-05
519.6202,-4.792638E-05
519.7202,-4.786234E-05
519.8201,-4.785575E-05
519.9201,-4.784916E-05
520.0201,-4.784445E-05
520.1201,-4.781149E-05
520.22,-4.777759E-05
520.32,-4.780207E-05
520.42,-4.78049E-05
520.52,-4.775781E-05
520.6199,-4.776818E-05
520.7199,-4.777099E-05
520.8199,-4.775593E-05
520.9199,-4.771826E-05
521.0198,-4.768624E-05
521.1198,-4.772202E-05
521.2198,-4.768718E-05
521.3198,-4.766552E-05
521.4197,-4.76627E-05
521.5197,-4.766835E-05
521.6197,-4.763256E-05
521.7197,-4.762314E-05
521.8196,-4.761467E-05
521.9196,-4.761373E-05
522.0196,-4.758171E-05
522.1196,-4.757982E-05
522.2195,-4.756758E-05
522.3195,-4.75836E-05
522.4195,-4.755157E-05
522.5195,-4.756758E-05
522.6194,-4.757606E-05
522.7194,-4.754875E-05
522.8194,-4.754592E-05
522.9194,-4.753933E-05
523.0193,-4.752426E-05
523.1193,-4.748659E-05
523.2193,-4.749789E-05
523.3193,-4.751202E-05
523.4193,-4.750072E-05
523.5192,-4.746117E-05
523.6192,-4.746399E-05
523.7192,-4.746023E-05
523.8192,-4.744327E-05
523.9191,-4.743574E-05
524.0191,-4.747153E-05
524.1191,-4.742538E-05
524.2191,-4.738394E-05
524.319,-4.743951E-05
524.419,-4.741031E-05
524.519,-4.736229E-05
524.619,-4.738206E-05
524.7189,-4.737547E-05
524.8189,-4.734628E-05
524.9189,-4.732838E-05
525.0189,-4.735475E-05
525.1188,-4.732085E-05
525.2188,-4.728318E-05
525.3188,-4.731425E-05
525.4188,-4.730484E-05
525.5187,-4.728412E-05
525.6187,-4.728318E-05
525.7187,-4.729165E-05
525.8187,-4.726058E-05
525.9186,-4.728694E-05
526.0186,-4.73039E-05
526.1186,-4.727187E-05
526.2186,-4.732179E-05
526.3185,-4.728412E-05
526.4185,-4.724646E-05
526.5185,-4.727282E-05
526.6185,-4.726906E-05
526.7184,-4.722856E-05
526.8184,-4.720408E-05
526.9184,-4.722479E-05
527.0184,-4.721726E-05
527.1183,-4.716452E-05
527.2183,-4.721349E-05
527.3183,-4.720125E-05
527.4183,-4.715605E-05
527.5182,-4.713627E-05
527.6182,-4.715699E-05
527.7182,-4.712967E-05
527.8182,-4.710519E-05
527.9182,-4.711932E-05
528.0181,-4.708259E-05
528.1181,-4.7076E-05
528.2181,-4.707976E-05
528.3181,-4.706846E-05
528.418,-4.707317E-05
528.518,-4.706281E-05
528.618,-4.705716E-05
528.718,-4.704022E-05
528.8179,-4.705434E-05
528.9179,-4.701761E-05
529.0179,-4.702232E-05
529.1179,-4.70355E-05
529.2178,-4.699784E-05
529.3178,-4.698371E-05
529.4178,-4.70016E-05
529.5178,-4.697806E-05
529.6177,-4.695358E-05
529.7177,-4.695546E-05
529.8177,-4.697147E-05
529.9177,-4.68999E-05
530.0176,-4.69159E-05
530.1176,-4.695452E-05
530.2176,-4.688671E-05
530.3176,-4.68707E-05
530.4175,-4.68933E-05
530.5175,-4.689707E-05
530.6175,-4.687164E-05
530.7175,-4.687917E-05
530.8174,-4.688954E-05
530.9174,-4.6882E-05
531.0174,-4.690931E-05
531.1174,-4.691026E-05
531.2173,-4.687729E-05
531.3173,-4.690931E-05
531.4173,-4.692815E-05
531.5173,-4.689048E-05
531.6172,-4.68933E-05
531.7172,-4.688483E-05
531.8172,-4.686222E-05
531.9172,-4.684622E-05
532.0172,-4.685657E-05
532.1171,-4.682173E-05
532.2171,-4.680855E-05
532.3171,-4.68255E-05
532.4171,-4.680195E-05
532.517,-4.680195E-05
532.617,-4.679348E-05
532.717,-4.678124E-05
532.817,-4.676052E-05
532.9169,-4.674828E-05
533.0169,-4.674734E-05
533.1169,-4.671249E-05
533.2169,-4.671626E-05
533.3168,-4.672473E-05
533.4168,-4.665316E-05
533.5168,-4.666164E-05
533.6168,-4.671626E-05
533.7167,-4.667859E-05
533.8167,-4.664939E-05
533.9167,-4.668518E-05
534.0167,-4.662585E-05
534.1166,-4.662773E-05
534.2166,-4.664186E-05
534.3166,-4.662114E-05
534.4166,-4.659948E-05
534.5165,-4.659948E-05
534.6165,-4.660984E-05
534.7165,-4.660231E-05
534.8165,-4.663245E-05
534.9164,-4.664845E-05
535.0164,-4.662585E-05
535.1164,-4.66202E-05
535.2164,-4.663245E-05
535.3163,-4.659854E-05
535.4163,-4.656558E-05
535.5163,-4.655993E-05
535.6163,-4.656841E-05
535.7162,-4.652226E-05
535.8162,-4.650719E-05
535.9162,-4.652132E-05
536.0162,-4.651002E-05
536.1161,-4.647988E-05
536.2161,-4.651378E-05
536.3161,-4.647612E-05
536.4161,-4.643656E-05
536.5161,-4.64667E-05
536.616,-4.645916E-05
536.716,-4.64149E-05
536.816,-4.642338E-05
536.916,-4.643468E-05
537.0159,-4.640172E-05
537.1159,-4.639042E-05
537.2159,-4.638665E-05
537.3159,-4.6381E-05
537.4158,-4.635934E-05
537.5158,-4.638288E-05
537.6158,-4.640831E-05
537.7158,-4.638383E-05
537.8157,-4.636876E-05
537.9157,-4.639136E-05
538.0157,-4.636782E-05
538.1157,-4.63518E-05
538.2156,-4.635463E-05
538.3156,-4.631602E-05
538.4156,-4.630943E-05
538.5156,-4.630849E-05
538.6155,-4.627835E-05
538.7155,-4.627647E-05
538.8155,-4.626705E-05
538.9155,-4.624633E-05
539.0154,-4.624822E-05
539.1154,-4.62388E-05
539.2154,-4.62275E-05
539.3154,-4.621902E-05
539.4153,-4.621055E-05
539.5153,-4.621431E-05
539.6153,-4.617382E-05
539.7153,-4.617759E-05
539.8152,-4.617099E-05
539.9152,-4.613992E-05
540.0152,-4.615311E-05
540.1152,-4.616158E-05
540.2151,-4.613238E-05
540.3151,-4.612485E-05
540.4151,-4.610978E-05
540.5151,-4.612768E-05
540.6151,-4.610413E-05
540.715,-4.609472E-05
540.815,-4.609848E-05
540.915,-4.608435E-05
541.015,-4.606929E-05
541.1149,-4.609377E-05
541.2149,-4.611167E-05
541.3149,-4.610319E-05
541.4149,-4.609848E-05
541.5148,-4.612673E-05
541.6148,-4.614651E-05
541.7148,-4.615404E-05
541.8148,-4.618041E-05
541.9147,-4.623597E-05
542.0147,-4.621055E-05
542.1147,-4.618606E-05
542.2147,-4.61936E-05
542.3146,-4.614557E-05
542.4146,-4.609754E-05
542.5146,-4.609848E-05
542.6146,-4.610319E-05
542.7145,-4.607776E-05
542.8145,-4.602126E-05
542.9145,-4.607588E-05
543.0145,-4.608812E-05
543.1144,-4.601749E-05
543.2144,-4.606458E-05
543.3144,-4.606647E-05
543.4144,-4.602503E-05
543.5143,-4.603444E-05
543.6143,-4.601561E-05
543.7143,-4.600243E-05
543.8143,-4.59996E-05
543.9142,-4.599866E-05
544.0142,-4.59544E-05
544.1142,-4.597135E-05
544.2142,-4.597794E-05
544.3141,-4.59252E-05
544.4141,-4.59139E-05
544.5141,-4.594875E-05
544.6141,-4.595722E-05
544.7141,-4.588283E-05
544.814,-4.594404E-05
544.914,-4.595345E-05
545.014,-4.588094E-05
545.114,-4.591955E-05
545.2139,-4.592332E-05
545.3139,-4.587058E-05
545.4139,-4.587718E-05
545.5139,-4.590261E-05
545.6138,-4.586399E-05
545.7138,-4.584045E-05
545.8138,-4.587058E-05
545.9138,-4.585457E-05
546.0137,-4.586023E-05
546.1137,-4.586116E-05
546.2137,-4.587529E-05
546.3137,-4.583857E-05
546.4136,-4.586493E-05
546.5136,-4.58461E-05
546.6136,-4.584327E-05
546.7136,-4.583762E-05
546.8135,-4.583292E-05
546.9135,-4.582444E-05
547.0135,-4.582161E-05
547.1135,-4.580466E-05
547.2134,-4.579054E-05
547.3134,-4.578865E-05
547.4134,-4.579054E-05
547.5134,-4.575852E-05
547.6133,-4.574156E-05
547.7133,-4.575663E-05
547.8133,-4.575569E-05
547.9133,-4.571708E-05
548.0132,-4.572838E-05
548.1132,-4.575287E-05
548.2132,-4.56973E-05
548.3132,-4.573121E-05
548.4131,-4.573215E-05
548.5131,-4.5686E-05
548.6131,-4.573686E-05
548.7131,-4.571802E-05
548.813,-4.568224E-05
548.913,-4.567659E-05
549.013,-4.571425E-05
549.113,-4.568883E-05
549.213,-4.56295E-05
549.3129,-4.5686E-05
549.4129,-4.570107E-05
549.5129,-4.565022E-05
549.6129,-4.567377E-05
549.7128,-4.570766E-05
549.8128,-4.564739E-05
549.9128,-4.564456E-05
550.0128,-4.566152E-05
550.1127,-4.565304E-05
550.2127,-4.563233E-05
550.3127,-4.560408E-05
550.4127,-4.562196E-05
550.5126,-4.566622E-05
550.6126,-4.564551E-05
550.7126,-4.565399E-05
550.8126,-4.562573E-05
550.9125,-4.560408E-05
551.0125,-4.559654E-05
551.1125,-4.561161E-05
551.2125,-4.560973E-05
551.3124,-4.559089E-05
551.4124,-4.560408E-05
551.5124,-4.563044E-05
551.6124,-4.560784E-05
551.7123,-4.558241E-05
551.8123,-4.563609E-05
551.9123,-4.557676E-05
552.0123,-4.554474E-05
552.1122,-4.558995E-05
552.2122,-4.554851E-05
552.3122,-4.554569E-05
552.4122,-4.553344E-05
552.5121,-4.552873E-05
552.6121,-4.550519E-05
552.7121,-4.552403E-05
552.8121,-4.553344E-05
552.912,-4.551649E-05
553.012,-4.549672E-05
553.112,-4.552685E-05
553.212,-4.549766E-05
553.312,-4.546846E-05
553.4119,-4.54986E-05
553.5119,-4.548071E-05
553.6119,-4.54468E-05
553.7119,-4.548541E-05
553.8118,-4.550048E-05
553.9118,-4.54355E-05
554.0118,-4.546376E-05
554.1118,-4.5476E-05
554.2117,-4.546093E-05
554.3117,-4.543173E-05
554.4117,-4.546281E-05
554.5117,-4.546564E-05
554.6116,-4.541667E-05
554.7116,-4.541855E-05
554.8116,-4.542797E-05
554.9116,-4.541196E-05
555.0115,-4.542138E-05
555.1115,-4.539124E-05
555.2115,-4.544021E-05
555.3115,-4.540537E-05
555.4114,-4.539218E-05
555.5114,-4.54242E-05
555.6114,-4.540631E-05
555.7114,-4.537146E-05
555.8113,-4.538936E-05
555.9113,-4.536111E-05
556.0113,-4.537994E-05
556.1113,-4.536205E-05
556.2112,-4.536205E-05
556.3112,-4.537617E-05
556.4112,-4.53338E-05
556.5112,-4.531779E-05
556.6111,-4.536958E-05
556.7111,-4.53903E-05
556.8111,-4.534604E-05
556.9111,-4.536864E-05
557.011,-4.539312E-05
557.111,-4.536205E-05
557.211,-4.538371E-05
557.311,-4.533662E-05
557.4109,-4.53272E-05
557.5109,-4.536581E-05
557.6109,-4.531496E-05
557.7109,-4.53112E-05
557.8109,-4.529519E-05
557.9108,-4.531214E-05
558.0108,-4.530931E-05
558.1108,-4.527917E-05
558.2108,-4.535075E-05
558.3107,-4.530272E-05
558.4107,-4.527823E-05
558.5107,-4.531214E-05
558.6107,-4.526599E-05
558.7106,-4.523962E-05
558.8106,-4.528294E-05
558.9106,-4.528483E-05
559.0106,-4.524245E-05
559.1105,-4.524716E-05
559.2105,-4.526505E-05
559.3105,-4.523115E-05
559.4105,-4.522832E-05
559.5104,-4.526222E-05
559.6104,-4.522926E-05
559.7104,-4.521326E-05
559.8104,-4.521137E-05
559.9103,-4.519065E-05
560.0103,-4.519819E-05
560.1103,-4.521137E-05
560.2103,-4.521419E-05
560.3102,-4.519913E-05
560.4102,-4.524904E-05
560.5102,-4.524622E-05
560.6102,-4.522832E-05
560.7101,-4.529519E-05
560.8101,-4.527164E-05
560.9101,-4.525657E-05
561.0101,-4.525846E-05
561.11,-4.526694E-05
561.21,-4.523868E-05
561.31,-4.521891E-05
561.41,-4.52481E-05
561.5099,-4.525657E-05
561.6099,-4.519253E-05
561.7099,-4.523585E-05
561.8099,-4.526034E-05
561.9099,-4.517653E-05
562.0098,-4.523209E-05
562.1098,-4.523585E-05
562.2098,-4.517465E-05
562.3098,-4.518029E-05
562.4097,-4.52076E-05
562.5097,-4.517276E-05
562.6097,-4.518123E-05
562.7097,-4.517653E-05
562.8096,-4.516052E-05
562.9096,-4.517276E-05
563.0096,-4.515298E-05
563.1096,-4.516522E-05
563.2095,-4.514545E-05
563.3095,-4.513509E-05
563.4095,-4.514827E-05
563.5095,-4.511155E-05
563.6094,-4.515958E-05
563.7094,-4.516711E-05
563.8094,-4.513132E-05
563.9094,-4.518595E-05
564.0093,-4.513792E-05
564.1093,-4.515298E-05
564.2093,-4.519631E-05
564.3093,-4.517558E-05
564.4092,-4.517935E-05
564.5092,-4.516711E-05
564.6092,-4.518595E-05
564.7092,-4.517841E-05
564.8091,-4.517653E-05
564.9091,-4.518971E-05
565.0091,-4.518029E-05
565.1091,-4.517088E-05
565.209,-4.516993E-05
565.309,-4.515487E-05
565.409,-4.515393E-05
565.509,-4.514262E-05
565.6089,-4.514639E-05
565.7089,-4.513415E-05
565.8089,-4.514262E-05
565.9089,-4.514922E-05
566.0089,-4.516617E-05
566.1088,-4.517935E-05
566.2088,-4.519253E-05
566.3088,-4.520572E-05
566.4088,-4.518783E-05
566.5087,-4.521984E-05
566.6087,-4.521891E-05
566.7087,-4.521514E-05
566.8087,-4.524433E-05
566.9086,-4.522832E-05
567.0086,-4.521984E-05
567.1086,-4.519631E-05
567.2086,-4.520289E-05
567.3085,-4.519631E-05
567.4085,-4.519631E-05
567.5085,-4.517558E-05
567.6085,-4.519253E-05
567.7084,-4.516711E-05
567.8084,-4.514074E-05
567.9084,-4.513038E-05
568.0084,-4.513415E-05
568.1083,-4.51511E-05
568.2083,-4.511814E-05
568.3083,-4.512002E-05
568.4083,-4.513038E-05
568.5082,-4.512096E-05
568.6082,-4.507576E-05
568.7082,-4.510684E-05
568.8082,-4.509836E-05
568.9081,-4.506352E-05
569.0081,-4.508518E-05
569.1081,-4.511061E-05
569.2081,-4.507482E-05
569.308,-4.505222E-05
569.408,-4.513697E-05
569.508,-4.506823E-05
569.608,-4.505127E-05
569.7079,-4.508235E-05
569.8079,-4.507293E-05
569.9079,-4.506446E-05
570.0079,-4.505127E-05
570.1078,-4.509648E-05
570.2078,-4.508141E-05
570.3078,-4.501832E-05
570.4078,-4.508895E-05
570.5078,-4.508141E-05
570.6077,-4.502397E-05
570.7077,-4.506069E-05
570.8077,-4.505599E-05
570.9077,-4.501643E-05
571.0076,-4.501738E-05
571.1076,-4.503621E-05
571.2076,-4.50089E-05
571.3076,-4.502397E-05
571.4075,-4.499383E-05
571.5075,-4.497311E-05
571.6075,-4.498253E-05
571.7075,-4.497594E-05
571.8074,-4.496369E-05
571.9074,-4.494957E-05
572.0074,-4.496464E-05
572.1074,-4.495804E-05
572.2073,-4.492603E-05
572.3073,-4.494015E-05
572.4073,-4.495899E-05
572.5073,-4.489589E-05
572.6072,-4.492226E-05
572.7072,-4.492038E-05
572.8072,-4.491567E-05
572.9072,-4.491567E-05
573.0071,-4.489589E-05
573.1071,-4.488836E-05
573.2071,-4.492603E-05
573.3071,-4.490719E-05
573.407,-4.488647E-05
573.507,-4.4894E-05
573.607,-4.489683E-05
573.707,-4.4878E-05
573.8069,-4.486764E-05
573.9069,-4.48667E-05
574.0069,-4.485728E-05
574.1069,-4.485634E-05
574.2068,-4.485728E-05
574.3068,-4.482997E-05
574.4068,-4.480925E-05
574.5068,-4.484409E-05
574.6068,-4.482243E-05
574.7067,-4.481208E-05
574.8067,-4.483186E-05
574.9067,-4.481961E-05
575.0067,-4.480831E-05
575.1066,-4.486858E-05
575.2066,-4.484598E-05
575.3066,-4.485163E-05
575.4066,-4.485917E-05
575.5065,-4.486575E-05
575.6065,-4.485445E-05
575.7065,-4.483468E-05
575.8065,-4.485728E-05
575.9064,-4.485351E-05
576.0064,-4.483186E-05
576.1064,-4.484033E-05
576.2064,-4.48262E-05
576.3063,-4.48036E-05
576.4063,-4.481773E-05
576.5063,-4.481114E-05
576.6063,-4.476782E-05
576.7062,-4.478665E-05
576.8062,-4.477629E-05
576.9062,-4.473862E-05
577.0062,-4.476782E-05
577.1061,-4.477158E-05
577.2061,-4.472355E-05
577.3061,-4.477629E-05
577.4061,-4.479607E-05
577.506,-4.476688E-05
577.606,-4.475369E-05
577.706,-4.47923E-05
577.806,-4.477817E-05
577.9059,-4.47358E-05
578.0059,-4.474804E-05
578.1059,-4.47584E-05
578.2059,-4.470943E-05
578.3058,-4.470472E-05
578.4058,-4.473768E-05
578.5058,-4.472073E-05
578.6058,-4.470284E-05
578.7057,-4.471414E-05
578.8057,-4.471414E-05
578.9057,-4.469059E-05
579.0057,-4.469436E-05
579.1057,-4.471885E-05
579.2056,-4.467929E-05
579.3056,-4.468118E-05
579.4056,-4.467458E-05
579.5056,-4.466988E-05
579.6055,-4.469154E-05
579.7055,-4.469248E-05
579.8055,-4.465387E-05
579.9055,-4.466328E-05
580.0054,-4.467835E-05
580.1054,-4.464633E-05
580.2054,-4.464445E-05
580.3054,-4.463597E-05
580.4053,-4.463503E-05
580.5053,-4.462655E-05
580.6053,-4.462279E-05
580.7053,-4.460113E-05
580.8052,-4.45823E-05
580.9052,-4.46162E-05
581.0052,-4.460584E-05
581.1052,-4.457382E-05
581.2051,-4.459736E-05
581.3051,-4.458983E-05
581.4051,-4.457099E-05
581.5051,-4.458041E-05
581.605,-4.455216E-05
581.705,-4.456063E-05
581.805,-4.458324E-05
581.905,-4.454274E-05
582.0049,-4.454651E-05
582.1049,-4.453992E-05
582.2049,-4.453898E-05
582.3049,-4.450507E-05
582.4048,-4.451826E-05
582.5048,-4.453144E-05
582.6048,-4.448247E-05
582.7048,-4.451261E-05
582.8047,-4.450225E-05
582.9047,-4.44787E-05
583.0047,-4.449471E-05
583.1047,-4.449942E-05
583.2047,-4.449942E-05
583.3046,-4.443632E-05
583.4046,-4.453521E-05
583.5046,-4.448718E-05
583.6046,-4.446457E-05
583.7045,-4.452956E-05
583.8045,-4.45013E-05
583.9045,-4.448247E-05
584.0045,-4.451449E-05
584.1044,-4.451638E-05
584.2044,-4.452673E-05
584.3044,-4.454839E-05
584.4044,-4.458606E-05
584.5043,-4.45644E-05
584.6043,-4.455687E-05
584.7043,-4.455498E-05
584.8043,-4.456346E-05
584.9042,-4.4474E-05
585.0042,-4.451261E-05
585.1042,-4.450413E-05
585.2042,-4.447117E-05
585.3041,-4.448718E-05
585.4041,-4.447776E-05
585.5041,-4.446835E-05
585.6041,-4.44448E-05
585.704,-4.442785E-05
585.804,-4.444009E-05
585.904,-4.441749E-05
586.004,-4.442973E-05
586.1039,-4.444009E-05
586.2039,-4.441278E-05
586.3039,-4.449E-05
586.4039,-4.444857E-05
586.5038,-4.440713E-05
586.6038,-4.449188E-05
586.7038,-4.450413E-05
586.8038,-4.446929E-05
586.9037,-4.449942E-05
587.0037,-4.451449E-05
587.1037,-4.449283E-05
587.2037,-4.447776E-05
587.3036,-4.447117E-05
587.4036,-4.449754E-05
587.5036,-4.446081E-05
587.6036,-4.444951E-05
587.7036,-4.443915E-05
587.8035,-4.443726E-05
587.9035,-4.444009E-05
588.0035,-4.44222E-05
588.1035,-4.43883E-05
588.2034,-4.443726E-05
588.3034,-4.443915E-05
588.4034,-4.440336E-05
588.5034,-4.44561E-05
588.6033,-4.442031E-05
588.7033,-4.440525E-05
588.8033,-4.443538E-05
588.9033,-4.440901E-05
589.0032,-4.438359E-05
589.1032,-4.437417E-05
589.2032,-4.436758E-05
589.3032,-4.436475E-05
589.4031,-4.433179E-05
589.5031,-4.437229E-05
589.6031,-4.434309E-05
589.7031,-4.431861E-05
589.803,-4.434592E-05
589.903,-4.431767E-05
590.003,-4.429601E-05
590.103,-4.43139E-05
590.2029,-4.430354E-05
590.3029,-4.428942E-05
590.4029,-4.426399E-05
590.5029,-4.427906E-05
590.6028,-4.42687E-05
590.7028,-4.424045E-05
590.8028,-4.42508E-05
590.9028,-4.424327E-05
591.0027,-4.426305E-05
591.1027,-4.425363E-05
591.2027,-4.424421E-05
591.3027,-4.42348E-05
591.4026,-4.425834E-05
591.5026,-4.420466E-05
591.6026,-4.418771E-05
591.7026,-4.425646E-05
591.8026,-4.42282E-05
591.9025,-4.417735E-05
592.0025,-4.42348E-05
592.1025,-4.42461E-05
592.2025,-4.419242E-05
592.3024,-4.423197E-05
592.4024,-4.423291E-05
592.5024,-4.421313E-05
592.6024,-4.419054E-05
592.7023,-4.420466E-05
592.8023,-4.420372E-05
592.9023,-4.419147E-05
593.0023,-4.417829E-05
593.1022,-4.419054E-05
593.2022,-4.416511E-05
593.3022,-4.417547E-05
593.4022,-4.418112E-05
593.5021,-4.41425E-05
593.6021,-4.418771E-05
593.7021,-4.417641E-05
593.8021,-4.413685E-05
593.902,-4.418206E-05
594.002,-4.418489E-05
594.102,-4.41265E-05
594.202,-4.413874E-05
594.3019,-4.414062E-05
594.4019,-4.411425E-05
594.5019,-4.415098E-05
594.6019,-4.413309E-05
594.7018,-4.411896E-05
594.8018,-4.410955E-05
594.9018,-4.410012E-05
595.0018,-4.408789E-05
595.1017,-4.411049E-05
595.2017,-4.410578E-05
595.3017,-4.409165E-05
595.4017,-4.408789E-05
595.5016,-4.408412E-05
595.6016,-4.406246E-05
595.7016,-4.40521E-05
595.8016,-4.404739E-05
595.9016,-4.404362E-05
596.0015,-4.401537E-05
596.1015,-4.402855E-05
596.2015,-4.402949E-05
596.3015,-4.399466E-05
596.4014,-4.397958E-05
596.5014,-4.400313E-05
596.6014,-4.398994E-05
596.7014,-4.397017E-05
596.8013,-4.398523E-05
596.9013,-4.399089E-05
597.0013,-4.395416E-05
597.1013,-4.39551E-05
597.2012,-4.396358E-05
597.3012,-4.397488E-05
597.4012,-4.394003E-05
597.5012,-4.39212E-05
597.6011,-4.391649E-05
597.7011,-4.392873E-05
597.8011,-4.389295E-05
597.9011,-4.390048E-05
598.001,-4.390236E-05
598.101,-4.38873E-05
598.201,-4.385904E-05
598.301,-4.389012E-05
598.4009,-4.390331E-05
598.5009,-4.385057E-05
598.6009,-4.382608E-05
598.7009,-4.385716E-05
598.8008,-4.385528E-05
598.9008,-4.382797E-05
599.0008,-4.387223E-05
599.1008,-4.385622E-05
599.2007,-4.382797E-05
599.3007,-4.381667E-05
599.4007,-4.383456E-05
599.5007,-4.379689E-05
599.6006,-4.379501E-05
599.7006,-4.38016E-05
599.8006,-4.37837E-05
599.9006,-4.378747E-05
600.0005,-4.381196E-05
