EXPID. 0529
[电化学]: i-t : @ 0(V) X 600(sec)
起始电位 (V),0
静置时间 (秒),0
运行时间 (秒),600
记录间隔,0.1
电解液 信息:
HNO3,0.4
0.1,0.00427625
0.2,0.001685708
0.3,-0.003875192
0.4,-0.004428123
0.5,-0.004051186
0.6,-0.003732622
0.7,-0.003473973
0.8000001,-0.003243886
0.9000001,-0.003036146
1,-0.002857819
1.1,-0.002699013
1.2,-0.002550647
1.3,-0.002420479
1.4,-0.002297759
1.5,-0.00217851
1.6,-0.002072482
1.7,-0.001974988
1.8,-0.001882876
1.9,-0.001801673
2,-0.001728878
2.1,-0.001662509
2.2,-0.001602064
2.3,-0.001547945
2.4,-0.001498594
2.5,-0.001452008
2.6,-0.001411989
2.7,-0.001373676
2.799999,-0.00133834
2.899999,-0.001307024
2.999999,-0.001277681
3.099999,-0.001249189
3.199999,-0.00122403
3.299999,-0.001200606
3.399999,-0.001177646
3.499999,-0.001156711
3.599999,-0.001137221
3.699999,-0.001119075
3.799999,-0.001100874
3.899998,-0.001084449
3.999998,-0.001069194
4.099998,-0.001053986
4.199998,-0.001039863
4.299998,-0.001026587
4.399998,-0.001013369
4.499998,-0.001001551
4.599998,-0.0009907359
4.699998,-0.0009793391
4.799998,-0.0009691967
4.899998,-0.0009595327
4.999998,-0.0009493846
5.099998,-0.0009402413
5.199997,-0.000931342
5.299997,-0.0009222684
5.399997,-0.0009139124
5.499997,-0.0009057589
5.599997,-0.0008978691
5.699997,-0.0008904699
5.799997,-0.0008832054
5.899997,-0.000876117
5.999997,-0.0008701021
6.099997,-0.0008641447
6.199996,-0.0008579802
6.299996,-0.0008520397
6.399996,-0.0008459816
6.499996,-0.0008395166
6.599996,-0.0008334264
6.699996,-0.0008277854
6.799996,-0.0008221096
6.899996,-0.0008167794
6.999996,-0.0008116461
7.099996,-0.0008066021
7.199996,-0.0008012757
7.299995,-0.0007967215
7.399995,-0.0007917463
7.499995,-0.000787129
7.599995,-0.0007826115
7.699995,-0.0007780705
7.799995,-0.000773989
7.899995,-0.0007698153
7.999995,-0.0007658337
8.099995,-0.0007618953
8.199995,-0.0007579551
8.299995,-0.0007543257
8.399996,-0.0007506284
8.499996,-0.0007467617
8.599997,-0.0007432132
8.699997,-0.0007396308
8.799997,-0.0007361917
8.899998,-0.0007328278
8.999998,-0.0007295232
9.099998,-0.0007262668
9.199999,-0.0007232608
9.299999,-0.0007200796
9.4,-0.0007170218
9.5,-0.0007140205
9.6,-0.000710958
9.700001,-0.0007081149
9.800001,-0.000705285
9.900002,-0.0007024862
10,-0.0006997279
10.1,-0.0006969535
10.2,-0.0006943854
10.3,-0.0006917862
10.4,-0.0006892436
10.5,-0.0006867424
10.6,-0.0006841958
10.7,-0.0006818699
10.8,-0.0006796596
10.90001,-0.0006773081
11.00001,-0.0006750865
11.10001,-0.000672768
11.20001,-0.0006704268
11.30001,-0.0006682834
11.40001,-0.0006661815
11.50001,-0.0006639666
11.60001,-0.0006618825
11.70001,-0.0006597485
11.80001,-0.0006577605
11.90001,-0.0006557349
12.00001,-0.0006536405
12.10001,-0.0006518343
12.20001,-0.0006498114
12.30001,-0.0006477895
12.40001,-0.0006460492
12.50001,-0.0006441271
12.60001,-0.0006423435
12.70001,-0.0006405777
12.80001,-0.0006388694
12.90001,-0.0006371404
13.00001,-0.0006354047
13.10001,-0.0006335919
13.20001,-0.0006318912
13.30001,-0.0006301537
13.40001,-0.0006284482
13.50002,-0.0006267145
13.60002,-0.0006251098
13.70002,-0.0006233921
13.80002,-0.0006217629
13.90002,-0.0006201921
14.00002,-0.0006185902
14.10002,-0.0006170759
14.20002,-0.0006155239
14.30002,-0.0006140228
14.40002,-0.0006124745
14.50002,-0.0006109857
14.60002,-0.0006096362
14.70002,-0.0006081144
14.80002,-0.000606585
14.90002,-0.0006052657
15.00002,-0.0006037965
15.10002,-0.0006023321
15.20002,-0.0006010428
15.30002,-0.0005998158
15.40002,-0.0005986632
15.50002,-0.0005973399
15.60002,-0.0005960169
15.70002,-0.0005946542
15.80002,-0.0005933113
15.90002,-0.0005920409
16.00002,-0.0005908082
16.10003,-0.0005894878
16.20003,-0.0005882665
16.30003,-0.000586979
16.40003,-0.0005857011
16.50003,-0.0005844722
16.60003,-0.0005832847
16.70003,-0.0005820208
16.80003,-0.0005808503
16.90003,-0.000579691
17.00003,-0.0005784602
17.10003,-0.0005773631
17.20003,-0.0005762189
17.30003,-0.0005751575
17.40003,-0.0005741414
17.50003,-0.0005731215
17.60003,-0.0005721609
17.70003,-0.0005710055
17.80003,-0.0005699903
17.90003,-0.0005690391
18.00003,-0.0005678996
18.10003,-0.000567022
18.20003,-0.0005660255
18.30003,-0.0005648276
18.40003,-0.0005639688
18.50003,-0.000563044
18.60003,-0.0005620656
18.70004,-0.0005613187
18.80004,-0.0005602998
18.90004,-0.0005592027
19.00004,-0.0005583175
19.10004,-0.00055763
19.20004,-0.0005567354
19.30004,-0.0005556204
19.40004,-0.0005547314
19.50004,-0.0005538065
19.60004,-0.0005528055
19.70004,-0.0005520117
19.80004,-0.0005509955
19.90004,-0.0005498503
20.00004,-0.0005490885
20.10004,-0.0005480489
20.20004,-0.0005470336
20.30004,-0.000546139
20.40004,-0.000545233
20.50004,-0.0005442415
20.60004,-0.0005433778
20.70004,-0.000542453
20.80004,-0.000541598
20.90004,-0.0005407335
21.00004,-0.0005398171
21.10004,-0.0005389451
21.20004,-0.0005381154
21.30005,-0.00053725
21.40005,-0.0005363403
21.50005,-0.0005354927
21.60005,-0.0005346903
21.70005,-0.0005338334
21.80005,-0.00053308
21.90005,-0.0005323614
22.00005,-0.0005316109
22.10005,-0.0005307935
22.20005,-0.0005299855
22.30005,-0.0005292076
22.40005,-0.0005283977
22.50005,-0.0005276048
22.60005,-0.0005267835
22.70005,-0.0005259454
22.80005,-0.0005252495
22.90005,-0.0005244067
23.00005,-0.0005236448
23.10005,-0.0005229131
23.20005,-0.0005221088
23.30005,-0.0005213103
23.40005,-0.0005206218
23.50005,-0.0005199014
23.60005,-0.0005191509
23.70005,-0.0005184078
23.80005,-0.0005177072
23.90005,-0.0005171063
24.00006,-0.000516337
24.10006,-0.0005155996
24.20006,-0.0005149771
24.30006,-0.0005143376
24.40006,-0.0005136493
24.50006,-0.0005128676
24.60006,-0.0005122545
24.70006,-0.0005116801
24.80006,-0.0005108721
24.90006,-0.000510114
25.00006,-0.0005095075
25.10006,-0.0005087824
25.20006,-0.0005081213
25.30006,-0.0005074941
25.40006,-0.0005067982
25.50006,-0.0005061069
25.60006,-0.0005054855
25.70006,-0.0005048629
25.80006,-0.0005042159
25.90006,-0.0005035567
26.00006,-0.0005029446
26.10006,-0.0005022759
26.20006,-0.000501662
26.30006,-0.0005010903
26.40006,-0.0005004801
26.50006,-0.000499899
26.60007,-0.0004993331
26.70007,-0.0004986917
26.80007,-0.0004981164
26.90007,-0.0004975372
27.00007,-0.0004969044
27.10007,-0.0004963196
27.20007,-0.0004957366
27.30007,-0.0004951885
27.40007,-0.0004944794
27.50007,-0.0004937976
27.60007,-0.0004932071
27.70007,-0.0004926176
27.80007,-0.0004920101
27.90007,-0.0004914404
28.00007,-0.0004908537
28.10007,-0.000490267
28.20007,-0.0004897133
28.30007,-0.0004891266
28.40007,-0.0004885371
28.50007,-0.000487973
28.60007,-0.0004873674
28.70007,-0.0004869248
28.80007,-0.0004864879
28.90007,-0.000486017
29.00007,-0.0004853973
29.10007,-0.000484773
29.20008,-0.0004842381
29.30008,-0.0004836834
29.40008,-0.0004830986
29.50008,-0.0004825495
29.60008,-0.0004820146
29.70008,-0.0004814562
29.80008,-0.0004809147
29.90008,-0.0004803723
30.00008,-0.0004798355
30.10008,-0.000479374
30.20008,-0.0004788495
30.30008,-0.0004782458
30.40008,-0.0004777759
30.50008,-0.0004772589
30.60008,-0.0004767051
30.70008,-0.0004761947
30.80008,-0.0004756834
30.90008,-0.0004751833
31.00008,-0.0004747501
31.10008,-0.000474235
31.20008,-0.0004737189
31.30008,-0.0004732631
31.40008,-0.0004727433
31.50008,-0.000472231
31.60008,-0.0004718364
31.70008,-0.0004713891
31.80009,-0.0004708966
31.90009,-0.0004703711
32.00008,-0.0004698889
32.10008,-0.0004693719
32.20008,-0.0004688426
32.30008,-0.0004683491
32.40008,-0.0004678595
32.50008,-0.0004673641
32.60007,-0.0004669102
32.70007,-0.0004664403
32.80007,-0.0004659779
32.90007,-0.0004655607
33.00007,-0.0004651774
33.10007,-0.0004648007
33.20007,-0.0004643327
33.30006,-0.00046381
33.40006,-0.00046331
33.50006,-0.0004629154
33.60006,-0.0004624897
33.70006,-0.000461952
33.80006,-0.0004615216
33.90005,-0.0004611007
34.00005,-0.0004606449
34.10005,-0.0004601891
34.20005,-0.0004596965
34.30005,-0.0004592454
34.40005,-0.0004588198
34.50005,-0.0004583621
34.60004,-0.0004579167
34.70004,-0.0004574835
34.80004,-0.0004570267
34.90004,-0.0004565728
35.00004,-0.0004561387
35.10004,-0.0004557573
35.20004,-0.0004553495
35.30003,-0.0004548805
35.40003,-0.0004544511
35.50003,-0.000454016
35.60003,-0.0004535743
35.70003,-0.000453159
35.80003,-0.000452723
35.90002,-0.0004523049
36.00002,-0.0004518981
36.10002,-0.0004515167
36.20002,-0.0004511079
36.30002,-0.0004506729
36.40002,-0.0004502576
36.50002,-0.0004498178
36.60001,-0.0004493695
36.70001,-0.0004489957
36.80001,-0.0004485869
36.90001,-0.000448214
37.00001,-0.0004479061
37.10001,-0.0004475247
37.2,-0.0004470999
37.3,-0.0004467129
37.4,-0.0004462891
37.5,-0.0004458531
37.6,-0.0004454962
37.7,-0.0004450357
37.8,-0.0004445789
37.89999,-0.0004441843
37.99999,-0.0004437982
38.09999,-0.0004433782
38.19999,-0.0004430204
38.29999,-0.0004426634
38.39999,-0.0004422444
38.49998,-0.0004419016
38.59998,-0.0004416388
38.69998,-0.0004412998
38.79998,-0.0004408355
38.89998,-0.0004404692
38.99998,-0.0004400709
39.09998,-0.0004396593
39.19997,-0.000439326
39.29997,-0.0004389464
39.39997,-0.0004385208
39.49997,-0.0004382411
39.59997,-0.0004378211
39.69997,-0.0004374255
39.79996,-0.0004370526
39.89996,-0.0004366759
39.99996,-0.0004362879
40.09996,-0.0004359442
40.19996,-0.000435591
40.29996,-0.0004351446
40.39996,-0.0004347859
40.49995,-0.0004344497
40.59995,-0.0004341022
40.69995,-0.0004337528
40.79995,-0.0004333949
40.89995,-0.0004330389
40.99995,-0.0004326999
41.09995,-0.0004323778
41.19994,-0.0004320548
41.29994,-0.0004316358
41.39994,-0.0004313372
41.49994,-0.0004309417
41.59994,-0.0004305857
41.69994,-0.0004302872
41.79993,-0.0004299463
41.89993,-0.0004296459
41.99993,-0.0004292174
42.09993,-0.0004288332
42.19993,-0.0004285262
42.29993,-0.0004281985
42.39993,-0.0004278528
42.49992,-0.0004275515
42.59992,-0.0004271804
42.69992,-0.0004267868
42.79992,-0.0004264939
42.89992,-0.0004261577
42.99992,-0.0004257895
43.09991,-0.0004254759
43.19991,-0.000425087
43.29991,-0.0004247612
43.39991,-0.0004244485
43.49991,-0.0004241104
43.59991,-0.0004237488
43.69991,-0.0004234032
43.7999,-0.000423098
43.8999,-0.0004227788
43.9999,-0.0004224143
44.0999,-0.0004220941
44.1999,-0.0004217683
44.2999,-0.0004214321
44.39989,-0.0004211213
44.49989,-0.0004208482
44.59989,-0.0004204537
44.69989,-0.0004201457
44.79989,-0.0004198434
44.89989,-0.0004194771
44.99989,-0.0004191399
45.09988,-0.0004188414
45.19988,-0.0004184948
45.29988,-0.0004181605
45.39988,-0.0004178592
45.49988,-0.0004175456
45.59988,-0.0004172555
45.69987,-0.0004169259
45.79987,-0.000416617
45.89987,-0.0004162667
45.99987,-0.0004158985
46.09987,-0.000415615
46.19987,-0.0004153231
46.29987,-0.0004149794
46.39986,-0.0004147402
46.49986,-0.000414484
46.59986,-0.0004141723
46.69986,-0.0004138841
46.79986,-0.000413547
46.89986,-0.0004131421
46.99986,-0.0004129452
47.09985,-0.0004126194
47.19985,-0.0004122324
47.29985,-0.0004119423
47.39985,-0.0004116805
47.49985,-0.0004114375
47.59985,-0.0004111851
47.69984,-0.0004109205
47.79984,-0.0004106342
47.89984,-0.000410315
47.99984,-0.0004100165
48.09984,-0.0004096577
48.19984,-0.0004093591
48.29984,-0.0004091124
48.39983,-0.000408762
48.49983,-0.0004085464
48.59983,-0.000408295
48.69983,-0.0004079654
48.79983,-0.000407663
48.89983,-0.0004074239
48.99982,-0.0004071526
49.09982,-0.0004069794
49.19982,-0.0004068541
49.29982,-0.0004064397
49.39982,-0.0004060461
49.49982,-0.0004059114
49.59982,-0.0004056534
49.69981,-0.0004052447
49.79981,-0.000404916
49.89981,-0.000404641
49.99981,-0.0004042992
50.09981,-0.0004039969
50.19981,-0.0004036965
50.2998,-0.0004034422
50.3998,-0.0004031362
50.4998,-0.0004028216
50.5998,-0.0004025099
50.6998,-0.0004022123
50.7998,-0.0004019223
50.8998,-0.0004016397
50.99979,-0.0004013243
51.09979,-0.0004010935
51.19979,-0.0004008223
51.29979,-0.0004005106
51.39979,-0.0004002121
51.49979,-0.0003999324
51.59978,-0.0003996489
51.69978,-0.0003993655
51.79978,-0.0003990848
51.89978,-0.0003988221
51.99978,-0.0003986262
52.09978,-0.0003983041
52.19978,-0.0003979971
52.29977,-0.0003977796
52.39977,-0.0003975639
52.49977,-0.0003972946
52.59977,-0.000397013
52.69977,-0.0003966382
52.79977,-0.0003963547
52.89977,-0.0003960543
52.99976,-0.000395817
53.09976,-0.0003955251
53.19976,-0.0003952435
53.29976,-0.0003950571
53.39976,-0.00039475
53.49976,-0.0003944685
53.59975,-0.0003942754
53.69975,-0.0003939477
53.79975,-0.000393699
53.89975,-0.0003935644
53.99975,-0.0003932451
54.09975,-0.0003930163
54.19975,-0.0003927338
54.29974,-0.0003924635
54.39974,-0.0003921989
54.49974,-0.0003919654
54.59974,-0.0003916602
54.69974,-0.000391357
54.79974,-0.0003911376
54.89973,-0.0003908353
54.99973,-0.0003905612
55.09973,-0.0003903644
55.19973,-0.0003902006
55.29973,-0.0003899312
55.39973,-0.0003896439
55.49973,-0.0003894565
55.59972,-0.000389159
55.69972,-0.0003888209
55.79972,-0.0003887455
55.89972,-0.0003884659
55.99972,-0.0003881758
56.09972,-0.0003882408
56.19971,-0.0003879912
56.29971,-0.0003876136
56.39971,-0.00038738
56.49971,-0.0003871182
56.59971,-0.0003867406
56.69971,-0.0003865212
56.79971,-0.0003862274
56.8997,-0.0003859109
56.9997,-0.000385635
57.0997,-0.0003854429
57.1997,-0.0003852056
57.2997,-0.0003849796
57.3997,-0.0003847282
57.49969,-0.0003845002
57.59969,-0.0003841932
57.69969,-0.0003839889
57.79969,-0.0003837628
57.89969,-0.000383454
57.99969,-0.0003831969
58.09969,-0.0003829596
58.19968,-0.0003827241
58.29968,-0.0003824962
58.39968,-0.0003822137
58.49968,-0.0003819529
58.59968,-0.0003817532
58.69968,-0.0003814886
58.79967,-0.0003812371
58.89967,-0.0003810036
58.99967,-0.0003807182
59.09967,-0.0003804866
59.19967,-0.0003803057
59.29967,-0.0003800571
59.39967,-0.0003797887
59.49966,-0.0003795439
59.59966,-0.0003794158
59.69966,-0.0003791531
59.79966,-0.0003788536
59.89966,-0.000378605
59.99966,-0.0003783055
60.09966,-0.0003781181
60.19965,-0.0003780136
60.29965,-0.0003777829
60.39965,-0.0003774721
60.49965,-0.0003772668
60.59965,-0.0003770097
60.69965,-0.0003767272
60.79964,-0.0003764946
60.89964,-0.0003762281
60.99964,-0.0003759305
61.09964,-0.0003757092
61.19964,-0.0003754662
61.29964,-0.0003752854
61.39964,-0.0003751206
61.49963,-0.0003748993
61.59963,-0.00037471
61.69963,-0.0003744981
61.79963,-0.0003743041
61.89963,-0.0003740122
61.99963,-0.0003737278
62.09962,-0.0003736393
62.19962,-0.0003733595
62.29962,-0.0003730299
62.39962,-0.0003728293
62.49962,-0.0003725704
62.59962,-0.000372317
62.69962,-0.0003721438
62.79961,-0.0003718839
62.89961,-0.0003716145
62.99961,-0.0003714752
63.09961,-0.000371219
63.19961,-0.0003709854
63.29961,-0.000370767
63.3996,-0.0003705334
63.4996,-0.0003702952
63.5996,-0.0003701313
63.6996,-0.0003698337
63.7996,-0.0003695936
63.8996,-0.0003693826
63.9996,-0.0003691424
64.09959,-0.0003689127
64.19959,-0.0003686669
64.29959,-0.0003684588
64.39959,-0.0003682233
64.49959,-0.0003679474
64.59959,-0.0003678043
64.69958,-0.0003676093
64.79958,-0.0003673249
64.89958,-0.0003671761
64.99958,-0.0003669426
65.09958,-0.0003666714
65.19958,-0.0003665819
65.29958,-0.0003662674
65.39957,-0.0003659651
65.49957,-0.00036579
65.59957,-0.0003655168
65.69957,-0.0003652616
65.79957,-0.0003650761
65.89957,-0.0003648086
65.99957,-0.000364577
66.09956,-0.0003643688
66.19956,-0.000364141
66.29956,-0.0003639074
66.39956,-0.0003637379
66.49956,-0.0003634921
66.59956,-0.0003632793
66.69955,-0.0003630872
66.79955,-0.0003627914
66.89955,-0.0003625871
66.99955,-0.0003623648
67.09955,-0.0003621746
67.19955,-0.0003618827
67.29955,-0.0003617235
67.39954,-0.0003615625
67.49954,-0.0003612432
67.59954,-0.0003610323
67.69954,-0.0003609767
67.79954,-0.0003608147
67.89954,-0.0003605623
67.99953,-0.000360293
68.09953,-0.0003600887
68.19953,-0.0003598598
68.29953,-0.0003597449
68.39953,-0.0003595415
68.49953,-0.0003592515
68.59953,-0.0003590113
68.69952,-0.0003588418
68.79952,-0.0003587005
68.89952,-0.0003584077
68.99952,-0.0003582061
69.09952,-0.0003579745
69.19952,-0.0003577475
69.29951,-0.0003575789
69.39951,-0.0003573633
69.49951,-0.0003570959
69.59951,-0.0003569141
69.69951,-0.000356705
69.79951,-0.0003564724
69.89951,-0.000356286
69.9995,-0.0003560449
70.0995,-0.0003559206
70.1995,-0.0003557332
70.2995,-0.0003555938
70.3995,-0.0003554535
70.4995,-0.0003551399
70.59949,-0.0003548611
70.69949,-0.0003546473
70.79949,-0.0003544468
70.89949,-0.0003542914
70.99949,-0.0003540616
71.09949,-0.0003537913
71.19949,-0.0003535973
71.29948,-0.000353425
71.39948,-0.0003532131
71.49948,-0.0003530087
71.59948,-0.0003528223
71.69948,-0.0003525671
71.79948,-0.000352358
71.89948,-0.0003521857
71.99947,-0.0003519559
72.09947,-0.0003517572
72.19947,-0.0003515472
72.29947,-0.0003513193
72.39947,-0.0003511658
72.49947,-0.0003509464
72.59946,-0.0003507241
72.69946,-0.0003505753
72.79946,-0.0003504199
72.89946,-0.0003501769
72.99946,-0.0003499726
73.09946,-0.0003497202
73.19946,-0.000349497
73.29945,-0.0003493774
73.39945,-0.0003490921
73.49945,-0.0003488821
73.59945,-0.0003486965
73.69945,-0.000348511
73.79945,-0.0003483359
73.89944,-0.0003481729
73.99944,-0.0003479338
74.09944,-0.0003477652
74.19944,-0.0003475891
74.29944,-0.0003473668
74.39944,-0.000347121
74.49944,-0.0003469694
74.59943,-0.0003467736
74.69943,-0.0003465202
74.79943,-0.0003463083
74.89943,-0.0003461586
74.99943,-0.0003459457
75.09943,-0.0003457461
75.19942,-0.0003456312
75.29942,-0.000345377
75.39942,-0.0003451782
75.49942,-0.000345053
75.59942,-0.0003448392
75.69942,-0.0003446829
75.79942,-0.000344471
75.89941,-0.00034426
75.99941,-0.0003440547
76.09941,-0.0003439012
76.19941,-0.0003437233
76.29941,-0.0003435265
76.39941,-0.0003433287
76.4994,-0.0003431517
76.5994,-0.0003429586
76.6994,-0.0003427768
76.7994,-0.0003426224
76.8994,-0.0003424124
76.9994,-0.00034216
77.0994,-0.0003420112
77.19939,-0.000341788
77.29939,-0.0003415978
77.39939,-0.0003414499
77.49939,-0.0003412484
77.59939,-0.0003410195
77.69939,-0.0003408378
77.79939,-0.0003406909
77.89938,-0.0003405195
77.99938,-0.0003402775
78.09938,-0.0003401758
78.19938,-0.0003399507
78.29938,-0.0003397482
78.39938,-0.0003396164
78.49937,-0.0003394026
78.59937,-0.0003391399
78.69937,-0.0003390061
78.79937,-0.0003388705
78.89937,-0.0003386991
78.99937,-0.0003385315
79.09937,-0.0003383083
79.19936,-0.0003380691
79.29936,-0.0003378892
79.39936,-0.0003377319
79.49936,-0.000337537
79.59936,-0.0003373082
79.69936,-0.0003371481
79.79935,-0.0003369221
79.89935,-0.0003367639
79.99935,-0.0003366179
80.09935,-0.0003364249
80.19935,-0.0003362845
80.29935,-0.000336147
80.39935,-0.000335921
80.49934,-0.0003357082
80.59934,-0.0003355528
80.69934,-0.000335339
80.79934,-0.000335145
80.89934,-0.000335
80.99934,-0.0003347985
81.09933,-0.0003345743
81.19933,-0.0003344425
81.29933,-0.0003342447
81.39933,-0.0003340234
81.49933,-0.0003339264
81.59933,-0.0003337013
81.69933,-0.0003335318
81.79932,-0.0003333614
81.89932,-0.0003331542
81.99932,-0.0003329979
82.09932,-0.0003327879
82.19932,-0.0003326297
82.29932,-0.0003324121
82.39931,-0.0003322351
82.49931,-0.0003320759
82.59931,-0.0003318622
82.69931,-0.0003316644
82.79931,-0.0003315684
82.89931,-0.0003314007
82.99931,-0.0003311832
83.0993,-0.0003310184
83.1993,-0.0003308762
83.2993,-0.0003306436
83.3993,-0.0003305287
83.4993,-0.0003303215
83.5993,-0.0003300954
83.6993,-0.0003300004
83.79929,-0.0003298195
83.89929,-0.0003296444
83.99929,-0.0003294655
84.09929,-0.0003292762
84.19929,-0.0003290897
84.29929,-0.0003289211
84.39928,-0.0003287714
84.49928,-0.0003285774
84.59928,-0.0003284032
84.69928,-0.00032826
84.79928,-0.0003280425
84.89928,-0.0003278419
84.99928,-0.0003277374
85.09927,-0.0003275283
85.19927,-0.0003273174
85.29927,-0.0003272194
85.39927,-0.0003269821
85.49927,-0.0003267909
85.59927,-0.0003267175
85.69926,-0.0003265376
85.79926,-0.0003263502
85.89926,-0.0003262108
85.99926,-0.0003260244
86.09926,-0.0003258812
86.19926,-0.0003256948
86.29926,-0.0003255224
86.39925,-0.0003253143
86.49925,-0.0003251326
86.59925,-0.0003249781
86.69925,-0.0003247672
86.79925,-0.0003245571
86.89925,-0.0003244121
86.99924,-0.0003242445
87.09924,-0.0003240204
87.19924,-0.000323881
87.29924,-0.0003236606
87.39924,-0.0003234958
87.49924,-0.0003233546
87.59924,-0.0003231634
87.69923,-0.000322992
87.79923,-0.0003229016
87.89923,-0.0003227255
87.99923,-0.0003226021
88.09923,-0.0003223893
88.19923,-0.0003222565
88.29922,-0.0003220974
88.39922,-0.000321893
88.49922,-0.0003217225
88.59922,-0.0003215634
88.69922,-0.0003213797
88.79922,-0.0003212563
88.89922,-0.0003210935
88.99921,-0.0003208477
89.09921,-0.0003207563
89.19921,-0.0003205576
89.29921,-0.000320326
89.39921,-0.0003202205
89.49921,-0.0003200783
89.59921,-0.0003198476
89.6992,-0.000319727
89.7992,-0.0003195707
89.8992,-0.000319388
89.9992,-0.0003192326
90.0992,-0.0003190772
90.1992,-0.0003189312
90.29919,-0.0003187646
90.39919,-0.0003186252
90.49919,-0.0003185159
90.59919,-0.0003183417
90.69919,-0.0003181327
90.79919,-0.0003179791
90.89919,-0.0003178323
90.99918,-0.0003176665
91.09918,-0.0003174396
91.19918,-0.0003172766
91.29918,-0.0003171269
91.39918,-0.0003169762
91.49918,-0.0003167992
91.59917,-0.0003167069
91.69917,-0.0003166042
91.79917,-0.0003164111
91.89917,-0.0003162369
91.99917,-0.0003160976
92.09917,-0.0003158621
92.19917,-0.0003156606
92.29916,-0.00031559
92.39916,-0.0003154186
92.49916,-0.0003151615
92.59916,-0.0003150984
92.69916,-0.0003149129
92.79916,-0.0003147029
92.89915,-0.0003145889
92.99915,-0.0003145899
93.09915,-0.000314362
93.19915,-0.0003141802
93.29915,-0.0003139891
93.39915,-0.0003137997
93.49915,-0.0003136397
93.59914,-0.0003134692
93.69914,-0.000313343
93.79914,-0.0003131622
93.89914,-0.0003129936
93.99914,-0.0003128373
94.09914,-0.0003126593
94.19913,-0.0003125115
94.29913,-0.0003124022
94.39913,-0.000312212
94.49913,-0.0003120604
94.59913,-0.0003119059
94.69913,-0.0003117562
94.79913,-0.0003116272
94.89912,-0.0003114605
94.99912,-0.0003113654
95.09912,-0.0003112589
95.19912,-0.0003112119
95.29912,-0.0003110593
95.39912,-0.0003108135
95.49911,-0.0003106704
95.59911,-0.0003105197
95.69911,-0.0003103125
95.79911,-0.000310176
95.89911,-0.0003100036
95.99911,-0.0003098191
96.09911,-0.0003096288
96.1991,-0.0003094518
96.2991,-0.000309367
96.3991,-0.0003092258
96.4991,-0.0003090854
96.5991,-0.0003089244
96.6991,-0.0003089046
96.7991,-0.0003086758
96.89909,-0.0003085251
96.99909,-0.000308447
97.09909,-0.0003082407
97.19909,-0.0003081352
97.29909,-0.0003080561
97.39909,-0.0003077971
97.49908,-0.0003075862
97.59908,-0.0003075306
97.69908,-0.0003073187
97.79908,-0.0003071285
97.89908,-0.0003070042
97.99908,-0.000306847
98.09908,-0.0003066511
98.19907,-0.0003065202
98.29907,-0.0003063911
98.39907,-0.0003062659
98.49907,-0.0003060804
98.59907,-0.0003059316
98.69907,-0.000305779
98.79906,-0.0003057131
98.89906,-0.0003055078
98.99906,-0.0003053223
99.09906,-0.0003052074
99.19906,-0.0003050595
99.29906,-0.0003048486
99.39906,-0.0003047638
99.49905,-0.0003045962
99.59905,-0.0003044437
99.69905,-0.000304276
99.79905,-0.0003041658
99.89905,-0.0003040124
99.99905,-0.0003038692
100.099,-0.0003037176
100.199,-0.0003035424
100.299,-0.0003034134
100.399,-0.0003032599
100.499,-0.0003030866
100.599,-0.0003029576
100.699,-0.0003028041
100.799,-0.00030266
100.899,-0.0003024905
100.999,-0.0003023134
101.099,-0.0003022183
101.199,-0.000302046
101.299,-0.000301901
101.399,-0.0003019085
101.499,-0.0003017748
101.599,-0.0003015987
101.699,-0.0003014094
101.799,-0.0003012484
101.899,-0.0003010779
101.999,-0.0003009621
102.099,-0.000300785
102.199,-0.0003006334
102.299,-0.000300462
102.399,-0.0003002991
102.499,-0.0003001691
102.599,-0.0003000665
102.699,-0.000299978
102.799,-0.0002998386
102.899,-0.0002996455
102.999,-0.0002995156
103.099,-0.0002993479
103.199,-0.0002991596
103.299,-0.0002990823
103.399,-0.0002989138
103.499,-0.0002987452
103.599,-0.0002986125
103.699,-0.0002984505
103.799,-0.000298296
103.899,-0.0002981491
103.999,-0.0002979768
104.099,-0.0002978741
104.199,-0.0002977536
104.299,-0.0002976933
104.399,-0.0002975492
104.499,-0.0002973194
104.599,-0.0002972328
104.699,-0.0002971396
104.799,-0.0002970228
104.899,-0.0002970049
104.999,-0.0002967883
105.099,-0.0002966019
105.199,-0.0002965322
105.299,-0.0002963108
105.399,-0.0002961055
105.499,-0.0002960349
105.599,-0.0002958438
105.699,-0.0002956846
105.799,-0.0002955358
105.899,-0.0002954172
105.999,-0.0002952721
106.099,-0.0002951648
106.199,-0.0002950593
106.299,-0.0002948907
106.3989,-0.0002947598
106.4989,-0.0002945696
106.5989,-0.0002943662
106.6989,-0.0002942588
106.7989,-0.000294095
106.8989,-0.000293901
106.9989,-0.0002937917
107.0989,-0.0002936891
107.1989,-0.0002935318
107.2989,-0.0002933246
107.3989,-0.0002932625
107.4989,-0.0002931184
107.5989,-0.0002929272
107.6989,-0.0002928236
107.7989,-0.0002926805
107.8989,-0.0002925072
107.9989,-0.0002923754
108.0989,-0.0002922633
108.1989,-0.0002920985
108.2989,-0.0002919497
108.3989,-0.0002918225
108.4989,-0.0002916907
108.5989,-0.0002915532
108.6989,-0.0002915184
108.7989,-0.000291363
108.8989,-0.0002911615
108.9989,-0.000291104
109.0989,-0.0002909411
109.1989,-0.0002907217
109.2989,-0.0002907226
109.3989,-0.000290522
109.4989,-0.000290296
109.5989,-0.0002902009
109.6989,-0.0002900502
109.7989,-0.0002899062
109.8989,-0.0002898101
109.9989,-0.0002896387
110.0989,-0.0002894786
110.1989,-0.0002893816
110.2989,-0.0002892413
110.3989,-0.000289149
110.4989,-0.0002890624
110.5989,-0.000289036
110.6989,-0.0002890294
110.7989,-0.000288825
110.8989,-0.0002886376
110.9989,-0.0002885321
111.0989,-0.0002883353
111.1989,-0.000288147
111.2989,-0.0002879295
111.3989,-0.0002877759
111.4989,-0.0002877223
111.5989,-0.0002875518
111.6989,-0.0002873701
111.7989,-0.0002872749
111.8989,-0.0002871158
111.9989,-0.0002869491
112.0989,-0.0002868483
112.1989,-0.0002866854
112.2989,-0.0002865187
112.3989,-0.0002864142
112.4989,-0.000286256
112.5989,-0.0002861326
112.6989,-0.00028603
112.7989,-0.0002858859
112.8988,-0.0002857371
112.9988,-0.0002855902
113.0988,-0.0002854922
113.1988,-0.000285367
113.2988,-0.0002851937
113.3988,-0.0002850996
113.4988,-0.0002849696
113.5988,-0.0002848217
113.6988,-0.0002847492
113.7988,-0.0002845383
113.8988,-0.000284397
113.9988,-0.0002843509
114.0988,-0.0002841804
114.1988,-0.0002840382
114.2988,-0.0002839525
114.3988,-0.0002837981
114.4988,-0.000283637
114.5988,-0.0002835918
114.6988,-0.0002833903
114.7988,-0.000283217
114.8988,-0.0002830852
114.9988,-0.0002829854
115.0988,-0.0002828281
115.1988,-0.0002827066
115.2988,-0.0002825588
115.3988,-0.0002824891
115.4988,-0.0002823177
115.5988,-0.0002821689
115.6988,-0.000282086
115.7988,-0.0002819033
115.8988,-0.0002817884
115.9988,-0.0002816651
116.0988,-0.0002816114
116.1988,-0.00028144
116.2988,-0.0002812799
116.3988,-0.0002811847
116.4988,-0.0002810821
116.5988,-0.0002809211
116.6988,-0.0002807798
116.7988,-0.0002806028
116.8988,-0.0002804502
116.9988,-0.0002803476
117.0988,-0.0002801884
117.1988,-0.0002800509
117.2988,-0.0002799276
117.3988,-0.0002797967
117.4988,-0.0002796657
117.5988,-0.000279565
117.6988,-0.0002794011
117.7988,-0.0002793126
117.8988,-0.00027916
117.9988,-0.0002790113
118.0988,-0.0002789048
118.1988,-0.0002787429
118.2988,-0.0002786468
118.3988,-0.0002785733
118.4988,-0.0002784067
118.5988,-0.0002782701
118.6988,-0.0002781486
118.7988,-0.0002779923
118.8988,-0.0002778755
118.9988,-0.0002777418
119.0988,-0.0002775826
119.1988,-0.0002774376
119.2988,-0.0002773651
119.3988,-0.0002772031
119.4987,-0.0002770713
119.5987,-0.0002769338
119.6987,-0.000276866
119.7987,-0.0002767369
119.8987,-0.000276575
119.9987,-0.0002764676
120.0987,-0.0002763282
120.1987,-0.0002761795
120.2987,-0.00027609
120.3987,-0.0002759308
120.4987,-0.0002758451
120.5987,-0.0002757143
120.6987,-0.0002755457
120.7987,-0.0002754402
120.8987,-0.0002753432
120.9987,-0.0002751624
121.0987,-0.0002750343
121.1987,-0.0002749778
121.2987,-0.0002748102
121.3987,-0.000274651
121.4987,-0.0002745992
121.5987,-0.0002744872
121.6987,-0.000274297
121.7987,-0.0002741491
121.8987,-0.0002741058
121.9987,-0.0002739419
122.0987,-0.0002738035
122.1987,-0.0002736707
122.2987,-0.0002735181
122.3987,-0.0002733929
122.4987,-0.0002733185
122.5987,-0.0002731876
122.6987,-0.0002730256
122.7987,-0.0002729324
122.8987,-0.0002728165
122.9987,-0.0002726781
123.0987,-0.0002725839
123.1987,-0.0002724229
123.2987,-0.0002723071
123.3987,-0.0002722063
123.4987,-0.0002720387
123.5987,-0.000271921
123.6987,-0.0002718164
123.7987,-0.0002716262
123.8987,-0.0002715433
123.9987,-0.0002714209
124.0987,-0.0002713013
124.1987,-0.000271176
124.2987,-0.0002710404
124.3987,-0.0002709736
124.4987,-0.0002708248
124.5987,-0.0002706496
124.6987,-0.0002705639
124.7987,-0.0002703878
124.8987,-0.0002702531
124.9987,-0.000270174
125.0987,-0.00027003
125.1987,-0.0002698708
125.2987,-0.0002698247
125.3987,-0.0002696815
125.4987,-0.0002695817
125.5987,-0.0002694414
125.6987,-0.0002693152
125.7987,-0.0002691833
125.8987,-0.0002690779
125.9986,-0.0002689583
126.0986,-0.0002687831
126.1986,-0.0002686522
126.2986,-0.0002685976
126.3986,-0.0002684591
126.4986,-0.0002682755
126.5986,-0.0002681813
126.6986,-0.0002680514
126.7986,-0.0002678894
126.8986,-0.0002678037
126.9986,-0.000267686
127.0986,-0.0002675184
127.1986,-0.000267411
127.2986,-0.0002672914
127.3986,-0.0002671878
127.4986,-0.000267087
127.5986,-0.000266911
127.6986,-0.0002667857
127.7986,-0.0002667283
127.8986,-0.0002665625
127.9986,-0.000266442
128.0986,-0.0002663271
128.1986,-0.0002662178
128.2986,-0.0002661227
128.3986,-0.0002659984
128.4986,-0.0002659033
128.5986,-0.0002657526
128.6987,-0.0002656076
128.7987,-0.0002655445
128.8987,-0.0002653901
128.9987,-0.0002652658
129.0987,-0.0002651951
129.1987,-0.0002651
129.2987,-0.0002650369
129.3987,-0.0002649248
129.4987,-0.0002648759
129.5987,-0.0002647186
129.6987,-0.0002645236
129.7987,-0.0002644446
129.8987,-0.0002643344
129.9987,-0.00026413
130.0987,-0.0002640726
130.1987,-0.0002639935
130.2988,-0.0002638588
130.3988,-0.0002637166
130.4988,-0.0002636667
130.5988,-0.0002635179
130.6988,-0.0002633408
130.7988,-0.0002632476
130.8988,-0.0002631384
130.9988,-0.0002630282
131.0988,-0.0002628992
131.1988,-0.0002627749
131.2988,-0.0002627033
131.3988,-0.0002625649
131.4988,-0.0002624415
131.5988,-0.0002624123
131.6988,-0.0002622965
131.7988,-0.0002621392
131.8988,-0.0002621006
131.9989,-0.0002619527
132.0989,-0.0002618322
132.1989,-0.0002617898
132.2989,-0.0002615883
132.3989,-0.0002614536
132.4989,-0.0002614112
132.5989,-0.0002612558
132.6989,-0.0002610977
132.7989,-0.0002610534
132.8989,-0.0002609488
132.9989,-0.0002607662
133.0989,-0.0002606428
133.1989,-0.0002605938
133.2989,-0.000260445
133.3989,-0.0002603103
133.4989,-0.0002603207
133.599,-0.0002601728
133.699,-0.0002599864
133.799,-0.0002598875
133.899,-0.0002597246
133.999,-0.0002595815
134.099,-0.0002595315
134.199,-0.000259347
134.299,-0.0002592048
134.399,-0.0002590851
134.499,-0.0002589599
134.599,-0.0002588535
134.699,-0.000258764
134.799,-0.0002586689
134.899,-0.0002585389
134.999,-0.0002584391
135.099,-0.0002583421
135.1991,-0.0002581849
135.2991,-0.0002580662
135.3991,-0.0002580239
135.4991,-0.000257875
135.5991,-0.0002576914
135.6991,-0.0002576236
135.7991,-0.0002575097
135.8991,-0.0002573477
135.9991,-0.0002572902
136.0991,-0.0002571367
136.1991,-0.0002569757
136.2991,-0.0002569503
136.3991,-0.0002568495
136.4991,-0.0002567007
136.5991,-0.000256566
136.6991,-0.0002564719
136.7991,-0.0002563428
136.8992,-0.0002562213
136.9992,-0.0002561404
137.0992,-0.0002559859
137.1992,-0.0002558918
137.2992,-0.0002558107
137.3992,-0.0002556441
137.4992,-0.0002555245
137.5992,-0.0002554265
137.6992,-0.0002553107
137.7992,-0.000255144
137.8992,-0.0002551214
137.9992,-0.000254998
138.0992,-0.0002548992
138.1992,-0.0002547362
138.2992,-0.0002546072
138.3992,-0.0002545102
138.4993,-0.0002543888
138.5993,-0.000254272
138.6993,-0.0002541665
138.7993,-0.0002540111
138.8993,-0.0002539358
138.9993,-0.0002537992
139.0993,-0.0002536542
139.1993,-0.000253592
139.2993,-0.0002534903
139.3993,-0.0002533651
139.4993,-0.0002533246
139.5993,-0.0002532417
139.6993,-0.0002530929
139.7993,-0.0002529724
139.8993,-0.0002528754
139.9993,-0.0002527492
140.0993,-0.0002526296
140.1994,-0.000252493
140.2994,-0.0002523781
140.3994,-0.0002522849
140.4994,-0.0002521295
140.5994,-0.0002520598
140.6994,-0.0002519732
140.7994,-0.0002518432
140.8994,-0.0002517302
140.9994,-0.0002516605
141.0994,-0.0002515748
141.1994,-0.0002514214
141.2994,-0.0002513243
141.3994,-0.0002512594
141.4994,-0.0002510974
141.5994,-0.0002509844
141.6994,-0.0002509542
141.7995,-0.00025078
141.8995,-0.0002506585
141.9995,-0.0002505484
142.0995,-0.0002504033
142.1995,-0.0002502809
142.2995,-0.0002502178
142.3995,-0.000250053
142.4995,-0.0002499485
142.5995,-0.0002498939
142.6995,-0.0002497988
142.7995,-0.0002496424
142.8995,-0.0002495134
142.9995,-0.0002494663
143.0995,-0.0002493552
143.1995,-0.0002491744
143.2995,-0.0002490774
143.3996,-0.0002489729
143.4996,-0.0002488344
143.5996,-0.0002487619
143.6996,-0.0002486046
143.7996,-0.0002484653
143.8996,-0.0002484238
143.9996,-0.0002482967
144.0996,-0.0002481517
144.1996,-0.0002481394
144.2996,-0.0002480556
144.3996,-0.0002479435
144.4996,-0.0002477571
144.5996,-0.0002476441
144.6996,-0.0002475913
144.7996,-0.0002474971
144.8996,-0.0002473804
144.9996,-0.0002472843
145.0997,-0.0002471619
145.1997,-0.0002470027
145.2997,-0.0002469048
145.3997,-0.0002468021
145.4997,-0.0002466778
145.5997,-0.0002465743
145.6997,-0.0002464612
145.7997,-0.0002463671
145.8997,-0.0002462578
145.9997,-0.0002461034
146.0997,-0.0002460384
146.1997,-0.0002459066
146.2997,-0.0002457644
146.3997,-0.0002456561
146.4997,-0.0002455572
146.5997,-0.0002455091
146.6998,-0.0002454743
146.7998,-0.0002453246
146.8998,-0.000245157
146.9998,-0.0002450468
147.0998,-0.0002449403
147.1998,-0.0002448462
147.2998,-0.0002447068
147.3998,-0.0002446437
147.4998,-0.0002445109
147.5998,-0.0002443828
147.6998,-0.0002443198
147.7998,-0.0002441879
147.8998,-0.0002440551
147.9998,-0.0002440024
148.0998,-0.0002438517
148.1998,-0.0002437274
148.2999,-0.000243686
148.3999,-0.0002436568
148.4999,-0.0002434515
148.5999,-0.0002433319
148.6999,-0.0002432744
148.7999,-0.0002430993
148.8999,-0.0002430522
148.9999,-0.0002429392
149.0999,-0.0002427781
149.1999,-0.0002426962
149.2999,-0.0002425936
149.3999,-0.0002425173
149.4999,-0.0002424241
149.5999,-0.0002423148
149.6999,-0.0002422225
149.7999,-0.0002421048
149.8999,-0.00024202
150,-0.0002418957
150.1,-0.0002418025
150.2,-0.0002417658
150.3,-0.0002416019
150.4,-0.0002414324
150.5,-0.0002414315
150.6,-0.0002412704
150.7,-0.0002411508
150.8,-0.0002411734
150.9,-0.0002410689
151,-0.0002408928
151.1,-0.000240874
151.2,-0.0002407412
151.3,-0.0002405839
151.4,-0.0002405547
151.5,-0.0002404003
151.6001,-0.0002403249
151.7001,-0.0002401573
151.8001,-0.0002400669
151.9001,-0.0002400142
152.0001,-0.0002399153
152.1001,-0.000239822
152.2001,-0.0002396544
152.3001,-0.0002395584
152.4001,-0.0002394877
152.5001,-0.0002393408
152.6001,-0.0002392316
152.7001,-0.0002391741
152.8001,-0.0002390225
152.9001,-0.0002388992
153.0001,-0.0002388888
153.1001,-0.0002387682
153.2001,-0.0002386006
153.3002,-0.0002385498
153.4002,-0.0002384226
153.5002,-0.000238319
153.6002,-0.0002382352
153.7002,-0.0002381034
153.8002,-0.0002379791
153.9002,-0.0002379028
154.0002,-0.000237786
154.1002,-0.000237658
154.2002,-0.000237593
154.3002,-0.0002375016
154.4002,-0.0002374131
154.5002,-0.0002372963
154.6002,-0.0002372304
154.7002,-0.0002371117
154.8002,-0.0002369931
154.9003,-0.0002369093
155.0003,-0.0002367868
155.1003,-0.0002366606
155.2003,-0.0002365589
155.3003,-0.0002364751
155.4003,-0.0002363546
155.5003,-0.0002362642
155.6003,-0.0002361559
155.7003,-0.000236073
155.8003,-0.0002359835
155.9003,-0.0002358941
156.0003,-0.0002357688
156.1003,-0.0002356247
156.2003,-0.0002355155
156.3003,-0.00023541
156.4003,-0.0002353074
156.5004,-0.000235217
156.6004,-0.0002351171
156.7004,-0.0002350183
156.8004,-0.0002348968
156.9004,-0.0002348252
157.0004,-0.0002347414
157.1004,-0.0002346613
157.2004,-0.0002345399
157.3004,-0.0002344005
157.4004,-0.0002343374
157.5004,-0.0002342178
157.6004,-0.0002340907
157.7004,-0.0002340068
157.8004,-0.000233908
157.9004,-0.0002337959
158.0004,-0.0002337761
158.1004,-0.0002336311
158.2005,-0.0002335077
158.3005,-0.0002334164
158.4005,-0.000233325
158.5005,-0.0002332007
158.6005,-0.000233083
158.7005,-0.0002329719
158.8005,-0.0002328796
158.9005,-0.0002327892
159.0005,-0.0002326583
159.1005,-0.0002325801
159.2005,-0.0002324869
159.3005,-0.0002323645
159.4005,-0.0002322816
159.5005,-0.0002321686
159.6005,-0.0002320791
159.7005,-0.0002319623
159.8006,-0.0002318456
159.9006,-0.0002318192
160.0006,-0.0002317109
160.1006,-0.0002315546
160.2006,-0.0002315207
160.3006,-0.0002314133
160.4006,-0.0002312947
160.5006,-0.0002312231
160.6006,-0.0002311007
160.7006,-0.000230983
160.8006,-0.0002309198
160.9006,-0.0002308078
161.0006,-0.000230691
161.1006,-0.000230611
161.2006,-0.0002305262
161.3006,-0.0002303991
161.4007,-0.0002303171
161.5007,-0.000230207
161.6007,-0.0002301128
161.7007,-0.0002300148
161.8007,-0.0002299178
161.9007,-0.0002298227
162.0007,-0.0002297097
162.1007,-0.0002296297
162.2007,-0.0002295167
162.3007,-0.0002294008
162.4007,-0.0002293133
162.5007,-0.0002292144
162.6007,-0.0002290694
162.7007,-0.0002290345
162.8007,-0.0002289328
162.9007,-0.0002288
163.0007,-0.0002287388
163.1008,-0.0002286145
163.2008,-0.0002285222
163.3008,-0.0002284968
163.4008,-0.0002283574
163.5008,-0.0002282397
163.6008,-0.0002281747
163.7008,-0.0002280862
163.8008,-0.0002279873
163.9008,-0.0002278724
164.0008,-0.0002277622
164.1008,-0.0002276718
164.2008,-0.0002275833
164.3008,-0.0002274863
164.4008,-0.0002273677
164.5008,-0.0002272622
164.6008,-0.0002271812
164.7009,-0.0002270945
164.8009,-0.0002270022
164.9009,-0.0002269024
165.0009,-0.0002267941
165.1009,-0.0002266802
165.2009,-0.0002266143
165.3009,-0.0002264975
165.4009,-0.0002264014
165.5009,-0.0002263308
165.6009,-0.0002262055
165.7009,-0.0002261001
165.8009,-0.0002260718
165.9009,-0.0002259268
166.0009,-0.0002258317
166.1009,-0.0002257592
166.2009,-0.0002256707
166.3009,-0.0002256113
166.401,-0.0002255322
166.501,-0.0002254126
166.601,-0.0002253288
166.701,-0.0002252544
166.801,-0.0002251687
166.901,-0.0002250011
167.001,-0.0002249248
167.101,-0.000224856
167.201,-0.000224728
167.301,-0.000224614
167.401,-0.0002245425
167.501,-0.000224469
167.601,-0.0002243042
167.701,-0.0002242204
167.801,-0.0002241384
167.901,-0.0002240151
168.0011,-0.0002239652
168.1011,-0.000223838
168.2011,-0.0002237448
168.3011,-0.0002236695
168.4011,-0.000223564
168.5011,-0.0002234632
168.6011,-0.000223434
168.7011,-0.0002232815
168.8011,-0.0002231911
168.9011,-0.0002231185
169.0011,-0.0002230027
169.1011,-0.0002229048
169.2011,-0.0002228247
169.3011,-0.0002227372
169.4011,-0.0002226722
169.5011,-0.0002225789
169.6012,-0.0002224697
169.7012,-0.000222351
169.8012,-0.0002222625
169.9012,-0.000222222
170.0012,-0.0002220864
170.1012,-0.0002219762
170.2012,-0.0002219611
170.3012,-0.0002218529
170.4012,-0.0002217229
170.5012,-0.0002216692
170.6012,-0.0002215459
170.7012,-0.0002214225
170.8012,-0.0002213519
170.9012,-0.0002212963
171.0012,-0.0002211503
171.1012,-0.0002210562
171.2012,-0.0002210157
171.3013,-0.0002208951
171.4013,-0.0002207887
171.5013,-0.0002208283
171.6013,-0.0002207134
171.7013,-0.0002205815
171.8013,-0.0002205636
171.9013,-0.0002204553
172.0013,-0.000220363
172.1013,-0.0002203668
172.2013,-0.0002202378
172.3013,-0.0002201361
172.4013,-0.0002201399
172.5013,-0.0002199732
172.6013,-0.0002198253
172.7013,-0.0002197245
172.8013,-0.000219605
172.9014,-0.0002195852
173.0014,-0.0002194995
173.1014,-0.0002194326
173.2014,-0.0002194279
173.3014,-0.0002193102
173.4014,-0.0002191256
173.5014,-0.000219022
173.6014,-0.0002189401
173.7014,-0.0002188327
173.8014,-0.000218731
173.9014,-0.0002186293
174.0014,-0.0002185992
174.1014,-0.0002185116
174.2014,-0.0002183798
174.3014,-0.0002183459
174.4014,-0.000218311
174.5014,-0.0002181547
174.6015,-0.0002180878
174.7015,-0.0002180257
174.8015,-0.0002178533
174.9015,-0.0002177281
175.0015,-0.0002177149
175.1015,-0.0002176075
175.2015,-0.0002174446
175.3015,-0.0002173966
175.4015,-0.0002173156
175.5015,-0.0002171423
175.6015,-0.0002170557
175.7015,-0.0002170011
175.8015,-0.0002169229
175.9015,-0.0002168042
176.0015,-0.0002166799
176.1015,-0.0002165933
176.2016,-0.0002165575
176.3016,-0.0002164125
176.4016,-0.0002162816
176.5016,-0.0002162307
176.6016,-0.0002161215
176.7016,-0.0002160942
176.8016,-0.000216
176.9016,-0.0002158559
177.0016,-0.0002157401
177.1016,-0.0002156807
177.2016,-0.0002155678
177.3016,-0.0002154519
177.4016,-0.0002153803
177.5016,-0.0002153088
177.6016,-0.0002152042
177.7016,-0.0002151185
177.8017,-0.0002150329
177.9017,-0.0002149227
178.0017,-0.0002148341
178.1017,-0.0002147993
178.2017,-0.000214707
178.3017,-0.0002146402
178.4017,-0.0002145507
178.5017,-0.0002144414
178.6017,-0.000214352
178.7017,-0.0002142691
178.8017,-0.0002141486
178.9017,-0.000214109
179.0017,-0.0002140045
179.1017,-0.0002138783
179.2017,-0.0002137719
179.3017,-0.0002136975
179.4017,-0.0002135854
179.5018,-0.0002135242
179.6018,-0.0002134272
179.7018,-0.000213318
179.8018,-0.0002132483
179.9018,-0.0002131776
180.0018,-0.0002130919
180.1018,-0.0002129695
180.2018,-0.0002129027
180.3018,-0.0002128283
180.4018,-0.0002126992
180.5018,-0.0002125891
180.6018,-0.000212542
180.7018,-0.0002124111
180.8018,-0.0002123207
180.9018,-0.0002122481
181.0018,-0.0002121643
181.1019,-0.0002120664
181.2019,-0.0002119948
181.3019,-0.0002118649
181.4019,-0.0002117971
181.5019,-0.0002117208
181.6019,-0.0002116652
181.7019,-0.0002115324
181.8019,-0.000211491
181.9019,-0.0002114072
182.0019,-0.0002112678
182.1019,-0.0002111529
182.2019,-0.0002111294
182.3019,-0.0002109994
182.4019,-0.0002108845
182.5019,-0.0002108148
182.6019,-0.0002107188
182.702,-0.0002106114
182.802,-0.0002105493
182.902,-0.0002104523
183.002,-0.0002103618
183.102,-0.0002102686
183.202,-0.0002101782
183.302,-0.0002100869
183.402,-0.0002099767
183.502,-0.0002099174
183.602,-0.0002097996
183.702,-0.0002097234
183.802,-0.0002096556
183.902,-0.0002095529
184.002,-0.0002094465
184.102,-0.0002094126
184.202,-0.0002093288
184.302,-0.0002091856
184.4021,-0.0002091065
184.5021,-0.000209035
184.6021,-0.0002089172
184.7021,-0.0002088268
184.8021,-0.0002087468
184.9021,-0.0002086978
185.0021,-0.0002086253
185.1021,-0.0002085679
185.2021,-0.0002084718
185.3021,-0.0002083757
185.4021,-0.0002082665
185.5021,-0.0002081799
185.6021,-0.0002080678
185.7021,-0.0002081036
185.8021,-0.000207951
185.9021,-0.0002078352
186.0022,-0.0002078343
186.1022,-0.0002077118
186.2022,-0.0002075922
186.3022,-0.0002075122
186.4022,-0.0002073916
186.5022,-0.0002073154
186.6022,-0.0002072824
186.7022,-0.0002071411
186.8022,-0.0002070771
186.9022,-0.000207031
187.0022,-0.0002069038
187.1022,-0.0002067955
187.2022,-0.0002067607
187.3022,-0.0002066948
187.4022,-0.0002065686
187.5022,-0.0002064885
187.6022,-0.0002064217
187.7023,-0.0002062992
187.8023,-0.000206255
187.9023,-0.0002061702
188.0023,-0.0002060544
188.1023,-0.0002059489
188.2023,-0.000205931
188.3023,-0.0002058227
188.4023,-0.0002056862
188.5023,-0.00020564
188.6023,-0.0002055289
188.7023,-0.0002054253
188.8023,-0.0002053829
188.9023,-0.0002052492
189.0023,-0.0002051607
189.1023,-0.0002051371
189.2023,-0.0002050524
189.3024,-0.0002049497
189.4024,-0.0002048574
189.5024,-0.0002048461
189.6024,-0.0002046719
189.7024,-0.0002045693
189.8024,-0.0002045664
189.9024,-0.0002044186
190.0024,-0.0002042867
190.1024,-0.0002042472
190.2024,-0.0002041474
190.3024,-0.0002040523
190.4024,-0.0002039826
190.5024,-0.0002038922
190.6024,-0.0002038517
190.7024,-0.0002038498
190.8024,-0.000203846
190.9025,-0.0002037726
191.0025,-0.0002036162
191.1025,-0.0002035541
191.2025,-0.0002034326
191.3025,-0.0002033158
191.4025,-0.0002033074
191.5025,-0.0002031953
191.6025,-0.0002030192
191.7025,-0.0002029627
191.8025,-0.0002028713
191.9025,-0.0002027593
192.0025,-0.0002027112
192.1025,-0.0002026133
192.2025,-0.0002024767
192.3025,-0.000202424
192.4025,-0.0002023421
192.5025,-0.0002022385
192.6026,-0.000202181
192.7026,-0.0002020633
192.8026,-0.0002020002
192.9026,-0.0002019644
193.0026,-0.0002018543
193.1026,-0.0002017337
193.2026,-0.0002016631
193.3026,-0.000201632
193.4026,-0.0002014945
193.5026,-0.0002013693
193.6026,-0.0002013372
193.7026,-0.0002012534
193.8026,-0.0002011809
193.9026,-0.0002012092
194.0026,-0.0002011489
194.1026,-0.0002010283
194.2027,-0.0002009775
194.3027,-0.0002008664
194.4027,-0.0002007007
194.5027,-0.000200663
194.6027,-0.0002005603
194.7027,-0.00020042
194.8027,-0.0002003635
194.9027,-0.0002002882
195.0027,-0.0002001742
195.1027,-0.0002000998
195.2027,-0.0002000471
195.3027,-0.0001999962
195.4027,-0.0001999237
195.5027,-0.0001998446
195.6027,-0.0001999039
195.7027,-0.0001997777
195.8027,-0.0001995866
195.9028,-0.0001995348
196.0028,-0.0001994651
196.1028,-0.0001993492
196.2028,-0.0001992296
196.3028,-0.0001991298
196.4028,-0.0001991119
196.5028,-0.0001989707
196.6028,-0.0001988953
196.7028,-0.0001988595
196.8028,-0.0001987494
196.9028,-0.000198658
197.0028,-0.0001985554
197.1028,-0.0001984847
197.2028,-0.0001984028
197.3028,-0.0001983049
197.4028,-0.0001982559
197.5029,-0.0001981467
197.6029,-0.0001980233
197.7029,-0.0001979856
197.8029,-0.0001979018
197.9029,-0.0001978161
198.0029,-0.0001978199
198.1029,-0.0001977897
198.2029,-0.0001976174
198.3029,-0.000197559
198.4029,-0.0001974809
198.5029,-0.0001973377
198.6029,-0.0001972624
198.7029,-0.0001971748
198.8029,-0.0001970674
198.9029,-0.0001969846
199.0029,-0.0001968829
199.103,-0.000196815
199.203,-0.0001967689
199.303,-0.0001966587
199.403,-0.0001965693
199.503,-0.0001964977
199.603,-0.0001964167
199.703,-0.0001963329
199.803,-0.0001962218
199.903,-0.0001961794
200.003,-0.0001961012
200.103,-0.0001960579
200.203,-0.0001960861
200.303,-0.0001959976
200.403,-0.0001958545
200.503,-0.0001958121
200.603,-0.0001956539
200.703,-0.0001955522
200.8031,-0.0001955013
200.9031,-0.0001953714
201.0031,-0.0001952791
201.1031,-0.000195264
201.2031,-0.0001951209
201.3031,-0.0001950135
201.4031,-0.0001949504
201.5031,-0.0001948854
201.6031,-0.0001948176
201.7031,-0.000194747
201.8031,-0.0001947253
201.9031,-0.0001947159
202.0031,-0.000194634
202.1031,-0.0001944975
202.2031,-0.0001943901
202.3031,-0.0001943129
202.4032,-0.00019423
202.5032,-0.0001941066
202.6032,-0.0001939955
202.7032,-0.0001939484
202.8032,-0.0001938533
202.9032,-0.0001937516
203.0032,-0.0001937168
203.1032,-0.0001936207
203.2032,-0.0001935143
203.3032,-0.0001934408
203.4032,-0.0001933806
203.5032,-0.0001932807
203.6032,-0.0001932082
203.7032,-0.0001931583
203.8032,-0.000193066
203.9032,-0.0001929652
204.0033,-0.0001928683
204.1033,-0.0001927976
204.2033,-0.0001927326
204.3033,-0.0001926262
204.4033,-0.0001925264
204.5033,-0.0001924322
204.6033,-0.0001924181
204.7033,-0.0001923117
204.8033,-0.0001922109
204.9033,-0.0001921667
205.0033,-0.0001920537
205.1033,-0.0001919472
205.2033,-0.0001919388
205.3033,-0.0001918211
205.4033,-0.0001917081
205.5033,-0.0001916214
205.6033,-0.0001915592
205.7034,-0.0001914792
205.8034,-0.0001913869
205.9034,-0.0001913342
206.0034,-0.0001912136
206.1034,-0.0001911383
206.2034,-0.0001910677
206.3034,-0.0001909952
206.4034,-0.0001909095
206.5034,-0.0001908398
206.6034,-0.0001907635
206.7034,-0.0001906439
206.8034,-0.0001906062
206.9034,-0.0001905507
207.0034,-0.000190448
207.1034,-0.0001903736
207.2034,-0.0001902794
207.3035,-0.000190206
207.4035,-0.0001901052
207.5035,-0.0001900186
207.6035,-0.0001899583
207.7035,-0.0001898858
207.8035,-0.0001898057
207.9035,-0.0001897323
208.0035,-0.0001896155
208.1035,-0.0001895731
208.2035,-0.0001894931
208.3035,-0.0001894121
208.4035,-0.0001893499
208.5035,-0.0001893217
208.6035,-0.0001892049
208.7035,-0.0001891023
208.8035,-0.0001890175
208.9035,-0.0001889544
209.0036,-0.0001888932
209.1036,-0.0001888358
209.2036,-0.0001887548
209.3036,-0.0001886634
209.4036,-0.0001885523
209.5036,-0.0001884826
209.6036,-0.0001884515
209.7036,-0.0001883884
209.8036,-0.0001882783
209.9036,-0.0001882255
210.0036,-0.0001882114
210.1036,-0.0001880372
210.2036,-0.0001879242
210.3036,-0.0001879317
210.4036,-0.0001877942
210.5036,-0.0001876812
210.6037,-0.0001876605
210.7037,-0.0001875437
210.8037,-0.0001874618
210.9037,-0.0001874844
211.0037,-0.0001873742
211.1037,-0.0001872452
211.2037,-0.0001872555
211.3037,-0.0001871463
211.4037,-0.0001870258
211.5037,-0.0001870107
211.6037,-0.0001868864
211.7037,-0.0001868233
211.8037,-0.0001867602
211.9037,-0.0001866594
212.0037,-0.0001865813
212.1037,-0.0001865313
212.2038,-0.0001864635
212.3038,-0.0001863712
212.4038,-0.0001862724
212.5038,-0.0001862441
212.6038,-0.0001861518
212.7038,-0.0001860492
212.8038,-0.0001860247
212.9038,-0.0001859305
213.0038,-0.0001858222
213.1038,-0.0001857751
213.2038,-0.000185665
213.3038,-0.0001856122
213.4038,-0.0001855133
213.5038,-0.0001854418
213.6038,-0.0001853824
213.7038,-0.0001853325
213.8038,-0.0001852591
213.9039,-0.0001852035
214.0039,-0.0001851056
214.1039,-0.0001850547
214.2039,-0.0001849709
214.3039,-0.0001848777
214.4039,-0.0001848588
214.5039,-0.0001847439
214.6039,-0.0001845707
214.7039,-0.0001845302
214.8039,-0.000184452
214.9039,-0.0001843475
215.0039,-0.0001842957
215.1039,-0.0001842128
215.2039,-0.0001841215
215.3039,-0.0001840621
215.4039,-0.0001839764
215.504,-0.000183886
215.604,-0.0001838615
215.704,-0.0001837598
215.804,-0.0001836638
215.904,-0.0001836261
216.004,-0.0001835611
216.104,-0.0001834688
216.204,-0.000183369
216.304,-0.0001832956
216.404,-0.0001832164
216.504,-0.0001831421
216.604,-0.0001830799
216.704,-0.0001829914
216.804,-0.0001829038
216.904,-0.0001828812
217.004,-0.0001828341
217.104,-0.0001826693
217.2041,-0.0001826024
217.3041,-0.0001825648
217.4041,-0.0001824734
217.5041,-0.0001824094
217.6041,-0.000182302
217.7041,-0.0001822446
217.8041,-0.000182205
217.9041,-0.0001820854
218.0041,-0.0001820412
218.1041,-0.0001820478
218.2041,-0.0001819432
218.3041,-0.000181866
218.4041,-0.0001817775
218.5041,-0.0001816551
218.6041,-0.0001815759
218.7041,-0.0001815326
218.8042,-0.000181414
218.9042,-0.0001813151
219.0042,-0.0001812991
219.1042,-0.0001812049
219.2042,-0.0001811211
219.3042,-0.0001810599
219.4042,-0.0001810307
219.5042,-0.0001809544
219.6042,-0.0001808602
219.7042,-0.0001807981
219.8042,-0.0001807039
219.9042,-0.0001806587
220.0042,-0.0001806389
220.1042,-0.0001805024
220.2042,-0.0001803753
220.3042,-0.0001803677
220.4043,-0.0001802886
220.5043,-0.000180169
220.6043,-0.00018012
220.7043,-0.0001800193
220.8043,-0.0001798997
220.9043,-0.0001798611
221.0043,-0.0001797923
221.1043,-0.0001797641
221.2043,-0.0001797094
221.3043,-0.0001797236
221.4043,-0.0001796915
221.5043,-0.0001795974
221.6043,-0.0001795296
221.7043,-0.0001794053
221.8043,-0.0001793459
221.9043,-0.0001793167
222.0043,-0.0001792037
222.1044,-0.0001790587
222.2044,-0.0001790239
222.3044,-0.0001789278
222.4044,-0.0001788026
222.5044,-0.0001787696
222.6044,-0.0001787376
222.7044,-0.0001785935
222.8044,-0.0001785294
222.9044,-0.0001784842
223.0044,-0.0001784108
223.1044,-0.0001783044
223.2044,-0.0001782799
223.3044,-0.0001782309
223.4044,-0.0001781076
223.5044,-0.0001780049
223.6044,-0.0001779625
223.7045,-0.0001779145
223.8045,-0.0001777648
223.9045,-0.0001776631
224.0045,-0.0001776414
224.1045,-0.0001775651
224.2045,-0.0001774286
224.3045,-0.0001773438
224.4045,-0.0001773457
224.5045,-0.0001772195
224.6045,-0.0001771093
224.7045,-0.0001771178
224.8045,-0.0001770255
224.9045,-0.0001769266
225.0045,-0.0001769087
225.1045,-0.0001768334
225.2045,-0.0001767449
225.3046,-0.0001767006
225.4046,-0.0001766224
225.5046,-0.0001765264
225.6046,-0.0001764558
225.7046,-0.0001764068
225.8046,-0.0001763201
225.9046,-0.0001762128
226.0046,-0.0001761657
226.1046,-0.0001760697
226.2046,-0.0001759905
226.3046,-0.0001759435
226.4046,-0.0001758163
226.5046,-0.0001757664
226.6046,-0.0001757372
226.7046,-0.000175725
226.8046,-0.0001755828
226.9046,-0.0001755074
227.0047,-0.0001754641
227.1047,-0.000175369
227.2047,-0.0001753012
227.3047,-0.0001752193
227.4047,-0.0001751298
227.5047,-0.0001750573
227.6047,-0.0001750008
227.7047,-0.0001749998
227.8047,-0.0001748812
227.9047,-0.0001747719
228.0047,-0.0001747512
228.1047,-0.0001746401
228.2047,-0.0001745742
228.3047,-0.0001744857
228.4047,-0.000174416
228.5047,-0.0001743548
228.6048,-0.0001742747
228.7048,-0.0001742107
228.8048,-0.0001741504
228.9048,-0.0001740675
229.0048,-0.0001740092
229.1048,-0.0001739442
229.2048,-0.0001738886
229.3048,-0.0001737728
229.4048,-0.0001737031
229.5048,-0.0001736193
229.6048,-0.000173526
229.7048,-0.0001734724
229.8048,-0.0001733933
229.9048,-0.000173301
230.0048,-0.0001732492
230.1048,-0.0001731889
230.2048,-0.0001731701
230.3049,-0.0001730721
230.4049,-0.0001729789
230.5049,-0.0001729412
230.6049,-0.0001728678
230.7049,-0.0001727397
230.8049,-0.0001726644
230.9049,-0.0001726041
231.0049,-0.0001725598
231.1049,-0.0001724459
231.2049,-0.0001723489
231.3049,-0.0001723187
231.4049,-0.0001722255
231.5049,-0.00017212
231.6049,-0.0001720927
231.7049,-0.0001720164
231.8049,-0.0001719166
231.905,-0.0001718855
232.005,-0.0001718074
232.105,-0.0001717264
232.205,-0.0001716699
232.305,-0.0001716134
232.405,-0.0001715258
232.505,-0.0001714618
232.605,-0.0001713713
232.705,-0.0001712998
232.805,-0.000171264
232.905,-0.0001711585
233.005,-0.0001710879
233.105,-0.0001710351
233.205,-0.0001709626
233.305,-0.0001708788
233.405,-0.0001707979
233.5051,-0.0001707272
233.6051,-0.0001706481
233.7051,-0.0001705718
233.8051,-0.0001705031
233.9051,-0.0001704287
234.0051,-0.0001703204
234.1051,-0.0001702535
234.2051,-0.0001702064
234.3051,-0.0001701066
234.4051,-0.0001700313
234.5051,-0.0001699512
234.6051,-0.0001698636
234.7051,-0.0001698589
234.8051,-0.0001697648
234.9051,-0.0001696489
235.0051,-0.000169583
235.1051,-0.0001695274
235.2052,-0.000169437
235.3052,-0.0001693834
235.4052,-0.0001693024
235.5052,-0.0001692214
235.6052,-0.0001691884
235.7052,-0.0001691084
235.8052,-0.0001690293
235.9052,-0.0001689549
236.0052,-0.0001688946
236.1052,-0.0001688616
236.2052,-0.0001687985
236.3052,-0.0001687731
236.4052,-0.0001687015
236.5052,-0.0001685876
236.6052,-0.0001685631
236.7052,-0.0001684708
236.8053,-0.0001683861
236.9053,-0.0001683766
237.0053,-0.0001682712
237.1053,-0.0001681676
237.2053,-0.0001681506
237.3053,-0.0001680442
237.4053,-0.000167919
237.5053,-0.0001678766
237.6053,-0.0001677928
237.7053,-0.0001676901
237.8053,-0.0001676553
237.9053,-0.0001675536
238.0053,-0.0001674971
238.1053,-0.0001674933
238.2053,-0.0001674528
238.3053,-0.0001673775
238.4053,-0.0001672654
238.5054,-0.0001672588
238.6054,-0.0001671515
238.7054,-0.0001670168
238.8054,-0.0001670064
238.9054,-0.0001669057
239.0054,-0.0001667992
239.1054,-0.0001667701
239.2054,-0.0001666523
239.3054,-0.0001665459
239.4054,-0.0001665186
239.5054,-0.0001664263
239.6054,-0.0001663463
239.7054,-0.0001662841
239.8054,-0.0001662163
239.9054,-0.0001661711
240.0054,-0.0001660882
240.1055,-0.000166028
240.2055,-0.0001659376
240.3055,-0.000165882
240.4055,-0.0001658293
240.5055,-0.0001657455
240.6055,-0.0001656654
240.7055,-0.000165623
240.8055,-0.0001655241
240.9055,-0.0001654403
241.0055,-0.0001654168
241.1055,-0.0001653716
241.2055,-0.0001652623
241.3055,-0.0001651974
241.4055,-0.0001651465
241.5055,-0.0001650448
241.6055,-0.0001649968
241.7056,-0.0001649422
241.8056,-0.0001648631
241.9056,-0.0001648169
242.0056,-0.0001647378
242.1056,-0.0001646964
242.2056,-0.0001645805
242.3056,-0.0001645052
242.4056,-0.0001644581
242.5056,-0.0001643893
242.6056,-0.0001643084
242.7056,-0.0001642217
242.8056,-0.0001641793
242.9056,-0.0001641097
243.0056,-0.0001640249
243.1056,-0.0001639336
243.2056,-0.0001639194
243.3056,-0.0001638328
243.4057,-0.0001637377
243.5057,-0.0001637085
243.6057,-0.0001636162
243.7057,-0.0001635446
243.8057,-0.0001635249
243.9057,-0.0001633939
244.0057,-0.000163328
244.1057,-0.0001633393
244.2057,-0.0001632593
244.3057,-0.0001631707
244.4057,-0.0001631011
244.5057,-0.0001630945
244.6057,-0.000162973
244.7057,-0.0001629071
244.8057,-0.0001628816
244.9057,-0.0001627743
245.0058,-0.0001626858
245.1058,-0.0001626359
245.2058,-0.0001625812
245.3058,-0.0001624871
245.4058,-0.000162439
245.5058,-0.0001623628
245.6058,-0.0001622893
245.7058,-0.0001622366
245.8058,-0.0001621593
245.9058,-0.0001620925
246.0058,-0.0001620567
246.1058,-0.0001619644
246.2058,-0.0001618862
246.3058,-0.0001618514
246.4058,-0.0001617534
246.5058,-0.0001616678
246.6059,-0.0001615934
246.7059,-0.0001615312
246.8059,-0.0001614596
246.9059,-0.0001614163
247.0059,-0.000161373
247.1059,-0.0001613014
247.2059,-0.0001612336
247.3059,-0.0001611941
247.4059,-0.0001610971
247.5059,-0.000161049
247.6059,-0.0001610217
247.7059,-0.000160968
247.8059,-0.0001608551
247.9059,-0.0001607863
248.0059,-0.0001607175
248.1059,-0.000160646
248.2059,-0.0001606111
248.306,-0.0001605038
248.406,-0.000160419
248.506,-0.0001603879
248.606,-0.00016029
248.706,-0.0001602504
248.806,-0.0001601713
248.906,-0.0001600904
249.006,-0.0001600461
249.106,-0.0001599736
249.206,-0.000159919
249.306,-0.0001598615
249.406,-0.0001597749
249.506,-0.0001597137
249.606,-0.0001596449
249.706,-0.0001595828
249.806,-0.0001595329
249.9061,-0.00015945
250.0061,-0.0001593624
250.1061,-0.0001593775
250.2061,-0.0001592965
250.3061,-0.0001591863
250.4061,-0.0001591486
250.5061,-0.0001590921
250.6061,-0.0001589669
250.7061,-0.0001589311
250.8061,-0.0001589019
250.9061,-0.0001587842
251.0061,-0.000158723
251.1061,-0.000158657
251.2061,-0.0001586175
251.3061,-0.0001585177
251.4061,-0.0001585007
251.5061,-0.0001584141
251.6062,-0.000158334
251.7062,-0.0001582869
251.8062,-0.0001582154
251.9062,-0.0001581353
252.0062,-0.0001581005
252.1062,-0.0001580364
252.2062,-0.00015793
252.3062,-0.0001579187
252.4062,-0.000157834
252.5062,-0.0001577341
252.6062,-0.0001576729
252.7062,-0.000157623
252.8062,-0.0001575985
252.9062,-0.0001575006
253.0062,-0.000157445
253.1062,-0.0001573951
253.2063,-0.0001573207
253.3063,-0.0001572529
253.4063,-0.0001571192
253.5063,-0.0001571126
253.6063,-0.0001570749
253.7063,-0.0001569318
253.8063,-0.0001569026
253.9063,-0.0001569045
254.0063,-0.0001568301
254.1063,-0.0001567548
254.2063,-0.0001566851
254.3063,-0.0001566041
254.4063,-0.0001565805
254.5063,-0.0001565221
254.6063,-0.0001564336
254.7063,-0.00015633
254.8064,-0.000156249
254.9064,-0.0001561803
255.0064,-0.0001561153
255.1064,-0.0001560729
255.2064,-0.0001560428
255.3064,-0.0001559232
255.4064,-0.0001558639
255.5064,-0.0001558309
255.6064,-0.0001557292
255.7064,-0.0001556661
255.8064,-0.0001556614
255.9064,-0.000155586
256.0064,-0.0001554608
256.1064,-0.0001554231
256.2064,-0.0001553647
256.3064,-0.0001552922
256.4064,-0.000155215
256.5064,-0.0001551453
256.6064,-0.0001551086
256.7065,-0.0001550267
256.8065,-0.0001549739
256.9065,-0.0001549165
257.0065,-0.0001548346
257.1065,-0.0001547714
257.2065,-0.0001547385
257.3065,-0.0001546744
257.4065,-0.0001546453
257.5065,-0.0001545153
257.6065,-0.000154487
257.7065,-0.0001544579
257.8065,-0.0001543307
257.9065,-0.000154277
258.0065,-0.0001542488
258.1065,-0.0001541838
258.2065,-0.0001541179
258.3065,-0.0001540426
258.4066,-0.0001539597
258.5066,-0.0001538994
258.6066,-0.0001538862
258.7066,-0.0001537855
258.8066,-0.00015368
258.9066,-0.0001536546
259.0066,-0.0001536122
259.1066,-0.0001535227
259.2066,-0.0001534238
259.3066,-0.0001534116
259.4066,-0.0001533381
259.5066,-0.0001532703
259.6066,-0.0001531752
259.7066,-0.0001531197
259.8066,-0.0001530547
259.9066,-0.000153017
260.0067,-0.000152921
260.1067,-0.000152839
260.2067,-0.0001528409
260.3067,-0.0001527411
260.4067,-0.0001526545
260.5067,-0.0001526422
260.6067,-0.000152581
260.7067,-0.000152484
260.8067,-0.0001524407
260.9067,-0.0001523879
261.0067,-0.0001523211
261.1067,-0.0001522787
261.2067,-0.0001521808
261.3067,-0.0001521111
261.4067,-0.000152095
261.5067,-0.0001520254
261.6068,-0.0001519293
261.7068,-0.0001518756
261.8068,-0.0001518163
261.9068,-0.0001517381
262.0068,-0.0001516882
262.1068,-0.0001516374
262.2068,-0.0001515244
262.3068,-0.0001514584
262.4068,-0.0001514519
262.5068,-0.0001514208
262.6068,-0.0001513097
262.7068,-0.0001512362
262.8068,-0.0001511872
262.9068,-0.0001510912
263.0068,-0.0001510497
263.1068,-0.0001509716
263.2068,-0.0001509075
263.3069,-0.0001508529
263.4069,-0.0001507757
263.5069,-0.0001508077
263.6069,-0.0001507399
263.7069,-0.0001506514
263.8069,-0.0001506175
263.9069,-0.0001505713
264.0069,-0.0001504423
264.1069,-0.0001503698
264.2069,-0.0001502945
264.3069,-0.0001502634
264.4069,-0.0001502069
264.5069,-0.0001500854
264.6069,-0.000150011
264.7069,-0.0001499874
264.8069,-0.0001499197
264.907,-0.0001498632
265.007,-0.0001497906
265.107,-0.0001497247
265.207,-0.0001496974
265.307,-0.0001496296
265.407,-0.0001495251
265.507,-0.0001494893
265.607,-0.0001494554
265.707,-0.0001493753
265.807,-0.0001493282
265.907,-0.0001492105
266.007,-0.0001491898
266.107,-0.0001491512
266.207,-0.0001490363
266.307,-0.0001489704
266.407,-0.0001490034
266.507,-0.0001489299
266.6071,-0.0001488489
266.7071,-0.0001488122
266.8071,-0.000148751
266.9071,-0.0001486578
267.0071,-0.0001486248
267.1071,-0.0001485673
267.2071,-0.0001484468
267.3071,-0.000148394
267.4071,-0.0001483762
267.5071,-0.0001483074
267.6071,-0.0001482471
267.7071,-0.0001482189
267.8071,-0.000148184
267.9071,-0.0001481143
268.0071,-0.0001480541
268.1071,-0.000147943
268.2072,-0.0001479288
268.3072,-0.0001479204
268.4072,-0.0001477593
268.5072,-0.000147668
268.6072,-0.0001476416
268.7072,-0.0001475606
268.8072,-0.0001474485
268.9072,-0.0001474344
269.0072,-0.0001473412
269.1072,-0.0001472809
269.2072,-0.0001472451
269.3072,-0.0001471736
269.4072,-0.0001471077
269.5072,-0.0001470643
269.6072,-0.0001470059
269.7072,-0.0001469221
269.8073,-0.0001468901
269.9073,-0.0001468251
270.0073,-0.0001467404
270.1073,-0.0001466933
270.2073,-0.0001466537
270.3073,-0.0001465501
270.4073,-0.0001465031
270.5073,-0.0001464494
270.6073,-0.0001464362
270.7073,-0.0001463307
270.8073,-0.000146262
270.9073,-0.000146213
271.0073,-0.0001461443
271.1073,-0.0001460878
271.2073,-0.0001460086
271.3073,-0.0001459371
271.4073,-0.0001458956
271.5074,-0.0001458222
271.6074,-0.0001457393
271.7074,-0.0001457073
271.8074,-0.0001456244
271.9074,-0.0001455773
272.0074,-0.0001455491
272.1074,-0.0001454568
272.2074,-0.0001453617
272.3074,-0.0001453626
272.4074,-0.0001452986
272.5074,-0.0001452072
272.6074,-0.0001451366
272.7074,-0.0001451093
272.8074,-0.0001450321
272.9074,-0.0001449869
273.0074,-0.0001449059
273.1075,-0.0001448409
273.2075,-0.0001447948
273.3075,-0.0001447373
273.4075,-0.0001446742
273.5075,-0.000144629
273.6075,-0.0001445932
273.7075,-0.0001444943
273.8075,-0.0001444388
273.9075,-0.0001444303
274.0075,-0.0001443248
274.1075,-0.0001442514
274.2075,-0.0001442504
274.3075,-0.0001441883
274.4075,-0.0001440913
274.5075,-0.0001440715
274.6075,-0.0001439905
274.7076,-0.0001439331
274.8076,-0.000143902
274.9076,-0.0001438135
275.0076,-0.0001437268
275.1076,-0.0001436976
275.2076,-0.0001436468
275.3076,-0.0001435498
275.4076,-0.0001434961
275.5076,-0.0001434471
275.6076,-0.0001433746
275.7076,-0.0001432974
275.8076,-0.0001432616
275.9076,-0.0001432108
276.0076,-0.0001431552
276.1076,-0.0001431006
276.2076,-0.0001430318
276.3076,-0.0001429895
276.4077,-0.0001429518
276.5077,-0.0001428331
276.6077,-0.000142738
276.7077,-0.0001427634
276.8077,-0.0001426947
276.9077,-0.0001425807
277.0077,-0.0001425252
277.1077,-0.0001424489
277.2077,-0.0001423773
277.3077,-0.000142383
277.4077,-0.0001423067
277.5077,-0.0001421984
277.6077,-0.0001421711
277.7077,-0.0001421005
277.8077,-0.0001420487
277.9077,-0.0001420176
278.0078,-0.0001419074
278.1078,-0.0001418763
278.2078,-0.0001419027
278.3078,-0.0001418339
278.4078,-0.0001417784
278.5078,-0.0001416795
278.6078,-0.0001416315
278.7078,-0.0001415816
278.8078,-0.00014151
278.9078,-0.0001414883
279.0078,-0.0001413989
279.1078,-0.0001413546
279.2078,-0.0001413311
279.3078,-0.000141203
279.4078,-0.0001411164
279.5078,-0.0001411003
279.6078,-0.0001410099
279.7079,-0.0001409176
279.8079,-0.0001408856
279.9079,-0.0001408319
280.0079,-0.0001407604
280.1079,-0.0001407142
280.2079,-0.0001406257
280.3079,-0.0001405664
280.4079,-0.0001405409
280.5079,-0.0001404345
280.6079,-0.0001403922
280.7079,-0.0001403837
280.8079,-0.0001403065
280.9079,-0.0001402377
281.0079,-0.0001401784
281.1079,-0.0001401219
281.2079,-0.0001400757
281.308,-0.0001400051
281.408,-0.0001399514
281.508,-0.0001398949
281.608,-0.0001398271
281.708,-0.0001398045
281.808,-0.0001397311
281.908,-0.0001396359
282.008,-0.0001396105
282.108,-0.0001395418
282.208,-0.0001394617
282.308,-0.0001394269
282.408,-0.0001393365
282.508,-0.0001393035
282.608,-0.0001392951
282.708,-0.0001392018
282.808,-0.0001391208
282.9081,-0.0001391133
283.0081,-0.0001390323
283.1081,-0.0001389664
283.2081,-0.0001389551
283.3081,-0.0001388458
283.4081,-0.0001387818
283.5081,-0.000138763
283.6081,-0.0001386971
283.7081,-0.0001386565
283.8081,-0.000138585
283.9081,-0.0001385228
284.0081,-0.0001384748
284.1081,-0.0001384202
284.2081,-0.0001383655
284.3081,-0.0001383175
284.4081,-0.0001382384
284.5081,-0.0001382017
284.6082,-0.0001381151
284.7082,-0.0001380529
284.8082,-0.0001380303
284.9082,-0.0001379455
285.0082,-0.0001378523
285.1082,-0.0001378777
285.2082,-0.000137808
285.3082,-0.0001377224
285.4082,-0.0001376762
285.5082,-0.0001376235
285.6082,-0.0001375576
285.7082,-0.0001374813
285.8082,-0.000137453
285.9082,-0.0001373617
286.0082,-0.0001372995
286.1082,-0.0001372581
286.2083,-0.0001372308
286.3083,-0.0001371385
286.4083,-0.0001370989
286.5083,-0.0001370612
286.6083,-0.0001369822
286.7083,-0.0001369624
286.8083,-0.000136888
286.9083,-0.0001368239
287.0083,-0.0001367995
287.1083,-0.0001366836
287.2083,-0.0001366299
287.3083,-0.0001366073
287.4083,-0.000136533
287.5083,-0.0001364548
287.6083,-0.0001364068
287.7083,-0.0001363879
287.8083,-0.0001363098
287.9084,-0.0001362241
288.0084,-0.0001362052
288.1084,-0.0001361374
288.2084,-0.0001360781
288.3084,-0.000136063
288.4084,-0.000135951
288.5084,-0.0001358511
288.6084,-0.0001358624
288.7084,-0.000135788
288.8084,-0.0001357127
288.9084,-0.0001356665
289.0084,-0.0001355884
289.1084,-0.0001355319
289.2084,-0.0001355168
289.3084,-0.0001354236
289.4084,-0.0001353548
289.5085,-0.0001353143
289.6085,-0.0001352795
289.7085,-0.0001351985
289.8085,-0.0001351552
289.9085,-0.0001350808
290.0085,-0.0001350036
290.1085,-0.0001349876
290.2085,-0.0001349245
290.3085,-0.0001348463
290.4085,-0.000134802
290.5085,-0.0001347352
290.6085,-0.0001346984
290.7085,-0.0001346693
290.8085,-0.0001345939
290.9085,-0.0001345299
291.0085,-0.0001344555
291.1086,-0.0001344225
291.2086,-0.0001343773
291.3086,-0.0001342897
291.4086,-0.0001343048
291.5086,-0.0001342135
291.6086,-0.0001341306
291.7086,-0.0001341118
291.8086,-0.0001340524
291.9086,-0.0001339705
292.0086,-0.0001339441
292.1086,-0.0001338688
292.2086,-0.0001337944
292.3086,-0.0001337897
292.4086,-0.0001337068
292.5086,-0.0001336588
292.6086,-0.0001336324
292.7086,-0.0001335533
292.8087,-0.0001334808
292.9087,-0.0001334544
293.0087,-0.0001334073
293.1087,-0.0001333216
293.2087,-0.0001332708
293.3087,-0.0001332529
293.4087,-0.0001331672
293.5087,-0.0001331022
293.6087,-0.0001330947
293.7087,-0.0001330156
293.8087,-0.0001329186
293.9087,-0.0001328922
294.0087,-0.0001328131
294.1087,-0.0001327321
294.2087,-0.000132717
294.3087,-0.0001326492
294.4088,-0.0001326295
294.5088,-0.0001325909
294.6088,-0.0001324854
294.7088,-0.0001324223
294.8088,-0.0001323714
294.9088,-0.0001323357
295.0088,-0.0001322735
295.1088,-0.000132201
295.2088,-0.0001321708
295.3088,-0.0001321153
295.4088,-0.0001320343
295.5088,-0.0001319966
295.6088,-0.0001319354
295.7088,-0.0001318601
295.8088,-0.0001318271
295.9088,-0.0001317885
296.0089,-0.0001316887
296.1089,-0.0001316736
296.2089,-0.0001316049
296.3089,-0.0001315305
296.4089,-0.0001314881
296.5089,-0.0001314306
296.6089,-0.0001313581
296.7089,-0.0001313223
296.8089,-0.000131263
296.9089,-0.000131182
297.0089,-0.0001311425
297.1089,-0.000131085
297.2089,-0.0001310191
297.3089,-0.0001310012
297.4089,-0.0001309089
297.5089,-0.0001308298
297.6089,-0.0001308515
297.709,-0.0001307742
297.809,-0.0001306961
297.909,-0.0001306518
298.009,-0.0001305803
298.109,-0.0001305332
298.209,-0.0001304936
298.309,-0.0001304258
298.409,-0.0001303552
298.509,-0.0001303081
298.609,-0.0001302723
298.709,-0.0001302365
298.809,-0.0001301753
298.909,-0.0001301207
299.009,-0.0001300529
299.109,-0.0001300086
299.209,-0.0001299625
299.3091,-0.0001298777
299.4091,-0.0001298316
299.5091,-0.0001298231
299.6091,-0.0001297242
299.7091,-0.0001296385
299.8091,-0.0001296442
299.9091,-0.0001295858
300.0091,-0.0001294869
300.1091,-0.0001294549
300.2091,-0.0001294012
300.3091,-0.0001293588
300.4091,-0.0001292807
300.5091,-0.0001292496
300.6091,-0.0001291724
300.7091,-0.0001291526
300.8091,-0.0001290848
300.9091,-0.0001290264
301.0092,-0.000128969
301.1092,-0.0001289124
301.2092,-0.0001288917
301.3092,-0.000128807
301.4092,-0.0001287486
301.5092,-0.0001287071
301.6092,-0.0001286384
301.7092,-0.0001286026
301.8092,-0.0001285423
301.9092,-0.0001284745
302.0092,-0.0001284388
302.1092,-0.0001283983
302.2092,-0.0001283484
302.3092,-0.000128306
302.4092,-0.0001282382
302.5092,-0.0001282024
302.6093,-0.0001281647
302.7093,-0.0001280941
302.8093,-0.0001280263
302.9093,-0.0001280027
303.0093,-0.00012795
303.1093,-0.0001278624
303.2093,-0.0001278389
303.3093,-0.0001277975
303.4093,-0.0001277287
303.5093,-0.0001276769
303.6093,-0.0001276486
303.7093,-0.0001276628
303.8093,-0.0001275903
303.9093,-0.0001275432
304.0093,-0.0001275582
304.1093,-0.0001275027
304.2094,-0.0001274283
304.3094,-0.000127384
304.4094,-0.0001273398
304.5094,-0.0001272936
304.6094,-0.0001272192
304.7094,-0.0001271505
304.8094,-0.000127126
304.9094,-0.0001270394
305.0094,-0.0001269584
305.1094,-0.0001269621
305.2094,-0.0001268981
305.3094,-0.0001268359
305.4094,-0.0001267691
305.5094,-0.0001267192
305.6094,-0.0001266711
305.7094,-0.0001266231
305.8094,-0.0001265497
305.9095,-0.0001265157
306.0095,-0.0001265016
306.1095,-0.0001264206
306.2095,-0.0001263679
306.3095,-0.0001263293
306.4095,-0.0001262991
306.5095,-0.000126221
306.6095,-0.0001261786
306.7095,-0.0001261315
306.8095,-0.0001260524
306.9095,-0.000125994
307.0095,-0.0001259705
307.1095,-0.0001259055
307.2095,-0.0001258368
307.3095,-0.0001257897
307.4095,-0.0001257661
307.5096,-0.0001257077
307.6096,-0.0001256701
307.7096,-0.000125591
307.8096,-0.000125542
307.9096,-0.0001255175
308.0096,-0.0001254572
308.1096,-0.0001253819
308.2096,-0.0001253537
308.3096,-0.0001252896
308.4096,-0.0001252388
308.5096,-0.0001251898
308.6096,-0.0001251135
308.7096,-0.0001250551
308.8096,-0.0001250325
308.9096,-0.0001249722
309.0096,-0.0001248875
309.1096,-0.0001248658
309.2097,-0.0001247999
309.3097,-0.0001247491
309.4097,-0.0001246916
309.5097,-0.0001246351
309.6097,-0.0001246022
309.7097,-0.000124573
309.8097,-0.0001244882
309.9097,-0.0001244364
310.0097,-0.0001243959
310.1097,-0.0001243413
310.2097,-0.0001242895
310.3097,-0.0001242349
310.4097,-0.0001241972
310.5097,-0.0001241313
310.6097,-0.0001240748
310.7097,-0.0001240437
310.8098,-0.0001239863
310.9098,-0.0001239034
311.0098,-0.0001238808
311.1098,-0.0001238488
311.2098,-0.0001237876
311.3098,-0.0001237414
311.4098,-0.0001236821
311.5098,-0.0001236058
311.6098,-0.0001236001
311.7098,-0.0001235502
311.8098,-0.0001234627
311.9098,-0.0001234287
312.0098,-0.0001233581
312.1098,-0.000123311
312.2098,-0.0001233035
312.3098,-0.0001232555
312.4099,-0.0001231877
312.5099,-0.0001231274
312.6099,-0.0001230991
312.7099,-0.0001230379
312.8099,-0.0001229861
312.9099,-0.0001229456
313.0099,-0.0001228948
313.1099,-0.0001228129
313.2099,-0.000122779
313.3099,-0.000122713
313.4099,-0.0001226603
313.5099,-0.0001226273
313.6099,-0.0001225388
313.7099,-0.0001224729
313.8099,-0.0001224531
313.9099,-0.0001224079
314.0099,-0.0001223486
314.11,-0.0001222798
314.21,-0.0001222045
314.31,-0.0001221857
314.41,-0.0001221546
314.51,-0.0001220792
314.61,-0.0001220406
314.71,-0.0001220463
314.81,-0.0001220039
314.91,-0.0001219276
315.01,-0.0001218721
315.11,-0.0001218062
315.21,-0.0001217562
315.31,-0.0001216988
315.41,-0.0001216319
315.51,-0.0001215481
315.61,-0.0001215293
315.7101,-0.0001214897
315.8101,-0.0001214492
315.9101,-0.0001214172
316.0101,-0.0001213748
316.1101,-0.0001213004
316.2101,-0.0001212439
316.3101,-0.0001212204
316.4101,-0.0001211564
316.5101,-0.0001211234
316.6101,-0.0001211046
316.7101,-0.0001210104
316.8101,-0.0001209671
316.9101,-0.0001209633
317.0101,-0.0001209077
317.1101,-0.0001208145
317.2101,-0.0001208126
317.3102,-0.0001207335
317.4102,-0.0001206563
317.5102,-0.0001206384
317.6102,-0.0001205678
317.7102,-0.0001205235
317.8102,-0.0001204708
317.9102,-0.0001204312
318.0102,-0.0001204133
318.1102,-0.0001203662
318.2102,-0.0001203389
318.3102,-0.0001203521
318.4102,-0.0001202843
318.5102,-0.000120208
318.6102,-0.0001201628
318.7102,-0.0001201233
318.8102,-0.0001200366
318.9102,-0.0001199557
319.0103,-0.0001199406
319.1103,-0.0001198897
319.2103,-0.0001197786
319.3103,-0.0001197645
319.4103,-0.0001197617
319.5103,-0.0001197061
319.6103,-0.0001196515
319.7103,-0.0001196025
319.8103,-0.0001195601
319.9103,-0.0001195036
320.0103,-0.0001194782
320.1103,-0.0001194509
320.2103,-0.0001193746
320.3103,-0.0001193445
320.4103,-0.0001193322
320.5103,-0.0001192079
320.6104,-0.0001191363
320.7104,-0.0001191448
320.8104,-0.0001190657
320.9104,-0.0001189574
321.0104,-0.0001189329
321.1104,-0.0001189056
321.2104,-0.0001188397
321.3104,-0.0001187898
321.4104,-0.0001187352
321.5104,-0.0001186532
321.6104,-0.0001186476
321.7104,-0.0001186005
321.8104,-0.0001185195
321.9104,-0.0001184715
322.0104,-0.0001184037
322.1104,-0.0001183735
322.2104,-0.0001183604
322.3105,-0.0001182878
322.4105,-0.0001182417
322.5105,-0.0001181871
322.6105,-0.0001181362
322.7105,-0.000118091
322.8105,-0.0001180458
322.9105,-0.0001180157
323.0105,-0.0001179479
323.1105,-0.0001178933
323.2105,-0.0001178528
323.3105,-0.0001178076
323.4105,-0.0001177831
323.5105,-0.0001177332
323.6105,-0.0001177106
323.7105,-0.0001176503
323.8105,-0.0001176437
323.9106,-0.0001175853
324.0106,-0.00011751
324.1106,-0.0001175184
324.2106,-0.0001174158
324.3106,-0.0001173725
324.4106,-0.0001173452
324.5106,-0.0001172623
324.6106,-0.0001172425
324.7106,-0.0001171992
324.8106,-0.000117138
324.9106,-0.0001170626
325.0106,-0.0001170382
325.1106,-0.0001169883
325.2106,-0.000116927
325.3106,-0.0001168696
325.4106,-0.0001168395
325.5107,-0.0001167895
325.6107,-0.0001167415
325.7107,-0.0001167057
325.8107,-0.0001166408
325.9107,-0.0001165984
326.0107,-0.00011654
326.1107,-0.0001164825
326.2107,-0.0001164392
326.3107,-0.0001164053
326.4107,-0.0001163356
326.5107,-0.0001162565
326.6107,-0.0001162198
326.7107,-0.0001161765
326.8107,-0.0001161416
326.9107,-0.0001160917
327.0107,-0.0001160079
327.1107,-0.000115958
327.2108,-0.0001159439
327.3108,-0.0001158836
327.4108,-0.0001158262
327.5108,-0.0001157734
327.6108,-0.0001157292
327.7108,-0.0001156736
327.8108,-0.000115651
327.9108,-0.0001156067
328.0108,-0.0001155229
328.1108,-0.0001155031
328.2108,-0.0001154627
328.3108,-0.0001154033
328.4108,-0.0001153534
328.5108,-0.0001152884
328.6108,-0.0001152536
328.7108,-0.0001152319
328.8109,-0.0001151528
328.9109,-0.0001151095
329.0109,-0.0001150643
329.1109,-0.0001150172
329.2109,-0.0001149758
329.3109,-0.0001149127
329.4109,-0.0001148562
329.5109,-0.0001148307
329.6109,-0.0001147884
329.7109,-0.0001147196
329.8109,-0.0001146772
329.9109,-0.0001146264
330.0109,-0.0001146047
330.1109,-0.0001145171
330.2109,-0.0001144625
330.3109,-0.000114471
330.4109,-0.0001143957
330.511,-0.0001143806
330.611,-0.0001143721
330.711,-0.0001143712
330.811,-0.0001142572
330.911,-0.0001142459
331.011,-0.0001141838
331.111,-0.0001141122
331.211,-0.0001141452
331.311,-0.0001140482
331.411,-0.0001139615
331.511,-0.0001140161
331.611,-0.0001139832
331.711,-0.0001138626
331.811,-0.0001138174
331.911,-0.0001137901
332.011,-0.0001136988
332.1111,-0.0001136413
332.2111,-0.0001136347
332.3111,-0.0001135377
332.4111,-0.0001134869
332.5111,-0.0001134304
332.6111,-0.0001133965
332.7111,-0.0001133598
332.8111,-0.0001133164
332.9111,-0.0001132807
333.0111,-0.0001132223
333.1111,-0.0001132204
333.2111,-0.0001131262
333.3111,-0.0001130424
333.4111,-0.0001130433
333.5111,-0.0001129642
333.6111,-0.0001128936
333.7112,-0.000112888
333.8112,-0.0001128136
333.9112,-0.0001127401
334.0112,-0.0001127062
334.1112,-0.0001126629
334.2112,-0.0001126196
334.3112,-0.0001125932
334.4112,-0.0001125084
334.5112,-0.0001124642
334.6112,-0.0001124604
334.7112,-0.0001124143
334.8112,-0.0001123436
334.9112,-0.0001122721
335.0112,-0.0001122438
335.1112,-0.0001122033
335.2112,-0.0001121694
335.3112,-0.0001121082
335.4113,-0.0001120376
335.5113,-0.0001120056
335.6113,-0.0001119782
335.7113,-0.0001119255
335.8113,-0.0001118681
335.9113,-0.000111836
336.0113,-0.0001117805
336.1113,-0.0001117249
336.2113,-0.0001116995
336.3113,-0.0001116712
336.4113,-0.0001115968
336.5113,-0.0001115516
336.6113,-0.0001115055
336.7113,-0.0001114565
336.8113,-0.0001114028
336.9113,-0.0001113558
337.0114,-0.0001112917
337.1114,-0.0001112879
337.2114,-0.0001112286
337.3114,-0.0001111495
337.4114,-0.0001111231
337.5114,-0.000111109
337.6114,-0.0001110271
337.7114,-0.0001109904
337.8114,-0.000110996
337.9114,-0.0001109734
338.0114,-0.0001108896
338.1114,-0.0001108322
338.2114,-0.0001108001
338.3114,-0.0001107578
338.4114,-0.0001106852
338.5114,-0.000110625
338.6115,-0.0001105873
338.7115,-0.0001105562
338.8115,-0.0001104865
338.9115,-0.0001104451
339.0115,-0.0001104103
339.1115,-0.0001103538
339.2115,-0.0001103067
339.3115,-0.0001102765
339.4115,-0.000110237
339.5115,-0.0001101701
339.6115,-0.0001101343
339.7115,-0.0001100995
339.8115,-0.0001100486
339.9115,-0.0001099931
340.0115,-0.0001099469
340.1115,-0.0001099224
340.2115,-0.0001098716
340.3116,-0.0001098603
340.4116,-0.0001097981
340.5116,-0.0001097322
340.6116,-0.000109719
340.7116,-0.0001096597
340.8116,-0.0001095966
340.9116,-0.0001095797
341.0116,-0.0001095231
341.1116,-0.0001094714
341.2116,-0.0001094403
341.3116,-0.0001093809
341.4116,-0.0001093565
341.5116,-0.0001093282
341.6116,-0.0001092519
341.7116,-0.0001091935
341.8116,-0.000109203
341.9117,-0.0001091502
342.0117,-0.0001090918
342.1117,-0.000109024
342.2117,-0.0001089911
342.3117,-0.0001089562
342.4117,-0.0001089129
342.5117,-0.000108862
342.6117,-0.0001088216
342.7117,-0.000108799
342.8117,-0.0001087716
342.9117,-0.0001086709
343.0117,-0.0001086238
343.1117,-0.0001086577
343.2117,-0.0001085428
343.3117,-0.0001085033
343.4117,-0.0001085334
343.5117,-0.0001085268
343.6118,-0.0001084411
343.7118,-0.0001083931
343.8118,-0.0001083271
343.9118,-0.0001082885
344.0118,-0.0001082801
344.1118,-0.0001082132
344.2118,-0.0001081247
344.3118,-0.0001081106
344.4118,-0.0001080776
344.5118,-0.0001080098
344.6118,-0.0001079523
344.7118,-0.0001079222
344.8118,-0.0001078817
344.9118,-0.0001078563
345.0118,-0.0001077809
345.1118,-0.0001077084
345.2119,-0.0001076952
345.3119,-0.0001076632
345.4119,-0.0001076124
345.5119,-0.000107522
345.6119,-0.0001075229
345.7119,-0.0001074909
345.8119,-0.0001074099
345.9119,-0.0001073704
346.0119,-0.0001073543
346.1119,-0.0001073044
346.2119,-0.0001072724
346.3119,-0.0001072724
346.4119,-0.0001072329
346.5119,-0.0001072093
346.6119,-0.0001071547
346.7119,-0.0001071264
346.812,-0.0001070652
346.912,-0.000106988
347.012,-0.0001069654
347.112,-0.000106923
347.212,-0.0001068646
347.312,-0.0001068317
347.412,-0.0001067827
347.512,-0.0001067695
347.612,-0.0001066942
347.712,-0.0001066838
347.812,-0.0001066518
347.912,-0.0001066659
348.012,-0.0001066141
348.112,-0.0001065482
348.212,-0.00010652
348.312,-0.0001064484
348.412,-0.0001063731
348.5121,-0.0001063288
348.6121,-0.0001062996
348.7121,-0.0001062459
348.8121,-0.0001061423
348.9121,-0.0001061225
349.0121,-0.000106115
349.1121,-0.0001060585
349.2121,-0.0001059917
349.3121,-0.0001059634
349.4121,-0.0001059333
349.5121,-0.0001058787
349.6121,-0.0001058589
349.7121,-0.000105841
349.8121,-0.0001057666
349.9121,-0.0001057487
350.0121,-0.0001057854
350.1122,-0.0001057299
350.2122,-0.0001056564
350.3122,-0.0001056423
350.4122,-0.00010555
350.5122,-0.0001054925
350.6122,-0.0001054511
350.7122,-0.0001053805
350.8122,-0.0001053193
350.9122,-0.0001052825
351.0122,-0.0001052241
351.1122,-0.0001051658
351.2122,-0.0001051413
351.3122,-0.0001050914
351.4122,-0.0001050462
351.5122,-0.0001050028
351.6122,-0.0001049444
351.7122,-0.0001049068
351.8123,-0.0001048719
351.9123,-0.0001048248
352.0123,-0.000104758
352.1123,-0.0001047401
352.2123,-0.0001047043
352.3123,-0.0001046704
352.4123,-0.0001045857
352.5123,-0.0001045621
352.6123,-0.0001045536
352.7123,-0.0001044736
352.8123,-0.0001044444
352.9123,-0.0001044133
353.0123,-0.00010437
353.1123,-0.0001043417
353.2123,-0.0001042899
353.3123,-0.0001042325
353.4124,-0.0001042184
353.5124,-0.0001041562
353.6124,-0.0001040997
353.7124,-0.0001040752
353.8124,-0.0001040526
353.9124,-0.0001039952
354.0124,-0.0001039472
354.1124,-0.0001039076
354.2124,-0.0001038558
354.3124,-0.0001038351
354.4124,-0.0001037729
354.5124,-0.0001037334
354.6124,-0.0001036995
354.7124,-0.0001036524
354.8124,-0.0001036128
354.9124,-0.0001035667
355.0125,-0.0001035375
355.1125,-0.0001034753
355.2125,-0.0001034283
355.3125,-0.0001033972
355.4125,-0.0001033463
355.5125,-0.0001033049
355.6125,-0.0001032748
355.7125,-0.0001032145
355.8125,-0.000103173
355.9125,-0.0001031646
356.0125,-0.0001031024
356.1125,-0.000103029
356.2125,-0.0001029988
356.3125,-0.0001029715
356.4125,-0.0001029348
356.5125,-0.0001028708
356.6125,-0.0001028095
356.7126,-0.0001027926
356.8126,-0.0001027681
356.9126,-0.0001027229
357.0126,-0.0001026852
357.1126,-0.000102657
357.2126,-0.0001025854
357.3126,-0.0001025383
357.4126,-0.0001024969
357.5126,-0.0001024508
357.6126,-0.0001024121
357.7126,-0.0001024055
357.8126,-0.0001023453
357.9126,-0.0001022794
358.0126,-0.0001022379
358.1126,-0.000102221
358.2126,-0.0001021673
358.3127,-0.0001021193
358.4127,-0.0001020675
358.5127,-0.0001020514
358.6127,-0.0001019978
358.7127,-0.0001019789
358.8127,-0.0001019017
358.9127,-0.0001018509
359.0127,-0.0001018509
359.1127,-0.0001017736
359.2127,-0.0001017492
359.3127,-0.0001017058
359.4127,-0.0001016569
359.5127,-0.0001016296
359.6127,-0.0001016079
359.7127,-0.0001015391
359.8127,-0.0001015344
359.9128,-0.0001015062
360.0128,-0.0001014337
360.1128,-0.0001013866
360.2128,-0.0001013451
360.3128,-0.0001013357
360.4128,-0.0001012557
360.5128,-0.0001011982
360.6128,-0.000101202
360.7128,-0.0001011229
360.8128,-0.0001010786
360.9128,-0.0001010636
361.0128,-0.0001010862
361.1128,-0.0001009939
361.2128,-0.0001009496
361.3128,-0.0001009346
361.4128,-0.0001008762
361.5128,-0.0001008366
361.6129,-0.0001007679
361.7129,-0.0001007161
361.8129,-0.0001007048
361.9129,-0.0001006492
362.0129,-0.0001006134
362.1129,-0.0001005532
362.2129,-0.000100523
362.3129,-0.0001004646
362.4129,-0.0001004477
362.5129,-0.0001004034
362.6129,-0.0001003243
362.7129,-0.0001002979
362.8129,-0.0001002659
362.9129,-0.0001002264
363.0129,-0.0001001962
363.1129,-0.0001001529
363.213,-0.0001001247
363.313,-0.0001000597
363.413,-0.0001000522
363.513,-9.999471E-05
363.613,-9.99721E-05
363.713,-9.993914E-05
363.813,-9.988264E-05
363.913,-9.98252E-05
364.013,-9.981766E-05
364.113,-9.978941E-05
364.213,-9.970466E-05
364.313,-9.967358E-05
364.413,-9.965286E-05
364.513,-9.959824E-05
364.613,-9.952761E-05
364.713,-9.950312E-05
364.813,-9.946828E-05
364.9131,-9.942403E-05
365.0131,-9.940142E-05
365.1131,-9.935716E-05
365.2131,-9.932137E-05
365.3131,-9.926393E-05
365.4131,-9.922531E-05
365.5131,-9.917823E-05
365.6131,-9.91867E-05
365.7131,-9.91236E-05
365.8131,-9.905298E-05
365.9131,-9.900024E-05
366.0131,-9.899742E-05
366.1131,-9.894751E-05
366.2131,-9.890606E-05
366.3131,-9.889476E-05
366.4131,-9.881848E-05
366.5132,-9.879588E-05
366.6132,-9.876952E-05
366.7132,-9.871866E-05
366.8132,-9.867722E-05
366.9132,-9.86518E-05
367.0132,-9.859718E-05
367.1132,-9.85209E-05
367.2132,-9.853408E-05
367.3132,-9.849736E-05
367.4132,-9.841449E-05
367.5132,-9.839094E-05
367.6132,-9.83495E-05
367.7132,-9.833726E-05
367.8132,-9.83156E-05
367.9132,-9.823367E-05
368.0132,-9.820165E-05
368.1133,-9.821672E-05
368.2133,-9.817905E-05
368.3133,-9.812349E-05
368.4133,-9.806039E-05
368.5133,-9.80199E-05
368.6133,-9.797093E-05
368.7133,-9.794173E-05
368.8133,-9.790501E-05
368.9133,-9.78598E-05
369.0133,-9.779671E-05
369.1133,-9.77854E-05
369.2133,-9.77289E-05
369.3133,-9.770348E-05
369.4133,-9.765545E-05
369.5133,-9.758764E-05
369.6133,-9.756881E-05
369.7133,-9.753208E-05
369.8134,-9.747463E-05
369.9134,-9.742002E-05
370.0134,-9.74106E-05
370.1134,-9.738046E-05
370.2134,-9.73023E-05
370.3134,-9.726934E-05
370.4134,-9.723167E-05
370.5134,-9.720248E-05
370.6134,-9.71714E-05
370.7134,-9.711207E-05
370.8134,-9.707345E-05
370.9134,-9.703673E-05
371.0134,-9.697553E-05
371.1134,-9.696422E-05
371.2134,-9.696044E-05
371.3134,-9.687852E-05
371.4135,-9.682672E-05
371.5135,-9.679847E-05
371.6135,-9.676457E-05
371.7135,-9.671654E-05
371.8135,-9.666003E-05
371.9135,-9.666287E-05
372.0135,-9.661484E-05
372.1135,-9.655927E-05
372.2135,-9.653479E-05
372.3135,-9.649618E-05
372.4135,-9.646604E-05
372.5135,-9.643308E-05
372.6135,-9.638128E-05
372.7135,-9.6402E-05
372.8135,-9.636904E-05
372.9135,-9.632667E-05
373.0135,-9.630501E-05
373.1136,-9.626639E-05
373.2136,-9.6208E-05
373.3136,-9.61628E-05
373.4136,-9.613455E-05
373.5136,-9.608558E-05
373.6136,-9.60498E-05
373.7136,-9.600836E-05
373.8136,-9.596787E-05
373.9136,-9.589912E-05
374.0136,-9.586145E-05
374.1136,-9.585486E-05
374.2136,-9.578611E-05
374.3136,-9.571831E-05
374.4136,-9.574468E-05
374.5136,-9.566651E-05
374.6136,-9.562696E-05
374.7137,-9.563355E-05
374.8137,-9.556762E-05
374.9137,-9.551772E-05
375.0137,-9.548382E-05
375.1137,-9.545651E-05
375.2137,-9.541131E-05
375.3137,-9.538682E-05
375.4137,-9.5303E-05
375.5137,-9.528699E-05
375.6137,-9.527098E-05
375.7137,-9.522954E-05
375.8137,-9.517116E-05
375.9137,-9.515045E-05
376.0137,-9.51222E-05
376.1137,-9.504968E-05
376.2137,-9.501012E-05
376.3138,-9.501483E-05
376.4138,-9.495551E-05
376.5138,-9.491407E-05
376.6138,-9.492255E-05
376.7138,-9.487169E-05
376.8138,-9.484532E-05
376.9138,-9.479164E-05
377.0138,-9.473326E-05
377.1138,-9.469088E-05
377.2138,-9.466075E-05
377.3138,-9.461366E-05
377.4138,-9.454868E-05
377.5138,-9.456093E-05
377.6138,-9.452701E-05
377.7138,-9.447805E-05
377.8138,-9.444037E-05
377.9138,-9.44272E-05
378.0139,-9.435374E-05
378.1139,-9.430099E-05
378.2139,-9.430006E-05
378.3139,-9.426993E-05
378.4139,-9.421813E-05
378.5139,-9.418328E-05
378.6139,-9.412019E-05
378.7139,-9.407687E-05
378.8139,-9.40844E-05
378.9139,-9.400812E-05
379.0139,-9.395821E-05
379.1139,-9.396103E-05
379.2139,-9.390077E-05
379.3139,-9.385933E-05
379.4139,-9.381225E-05
379.5139,-9.376515E-05
379.614,-9.371995E-05
379.714,-9.372278E-05
379.814,-9.366816E-05
379.914,-9.361448E-05
380.014,-9.356645E-05
380.114,-9.355232E-05
380.214,-9.350148E-05
380.314,-9.345815E-05
380.414,-9.342048E-05
380.514,-9.341201E-05
380.614,-9.337622E-05
380.714,-9.333855E-05
380.814,-9.33103E-05
380.914,-9.32811E-05
381.014,-9.32199E-05
381.114,-9.320577E-05
381.2141,-9.315208E-05
381.3141,-9.314455E-05
381.4141,-9.310123E-05
381.5141,-9.302778E-05
381.6141,-9.301648E-05
381.7141,-9.297034E-05
381.8141,-9.295432E-05
381.9141,-9.291007E-05
382.0141,-9.284131E-05
382.1141,-9.285262E-05
382.2141,-9.281966E-05
382.3141,-9.276975E-05
382.4141,-9.273302E-05
382.5141,-9.271324E-05
382.6141,-9.266992E-05
382.7141,-9.261248E-05
382.8141,-9.255786E-05
382.9142,-9.253997E-05
383.0142,-9.249005E-05
383.1142,-9.244296E-05
383.2142,-9.240718E-05
383.3142,-9.237893E-05
383.4142,-9.232713E-05
383.5142,-9.22744E-05
383.6142,-9.224709E-05
383.7142,-9.22E-05
383.8142,-9.216986E-05
383.9142,-9.214255E-05
384.0142,-9.212655E-05
384.1142,-9.207852E-05
384.2142,-9.201918E-05
384.3142,-9.199376E-05
384.4142,-9.195986E-05
384.5143,-9.190336E-05
384.6143,-9.186663E-05
384.7143,-9.184497E-05
384.8143,-9.18073E-05
384.9143,-9.175456E-05
385.0143,-9.172443E-05
385.1143,-9.171689E-05
385.2143,-9.163779E-05
385.3143,-9.158317E-05
385.4143,-9.157186E-05
385.5143,-9.155492E-05
385.6143,-9.150124E-05
385.7143,-9.146639E-05
385.8143,-9.143814E-05
385.9143,-9.138635E-05
386.0143,-9.135433E-05
386.1143,-9.13176E-05
386.2144,-9.128087E-05
386.3144,-9.126298E-05
386.4144,-9.120271E-05
386.5144,-9.117163E-05
386.6144,-9.115467E-05
386.7144,-9.110383E-05
386.8144,-9.104543E-05
386.9144,-9.102943E-05
387.0144,-9.099929E-05
387.1144,-9.095503E-05
387.2144,-9.092301E-05
387.3144,-9.085897E-05
387.4144,-9.082601E-05
387.5144,-9.082225E-05
387.6144,-9.077987E-05
387.7144,-9.072619E-05
387.8145,-9.070076E-05
387.9145,-9.068758E-05
388.0145,-9.063955E-05
388.1145,-9.061695E-05
388.2145,-9.061506E-05
388.3145,-9.054255E-05
388.4145,-9.050676E-05
388.5145,-9.050959E-05
388.6145,-9.043048E-05
388.7145,-9.039375E-05
388.8145,-9.036456E-05
388.9145,-9.032407E-05
389.0145,-9.031936E-05
389.1145,-9.029205E-05
389.2145,-9.022518E-05
389.3145,-9.020069E-05
389.4146,-9.019976E-05
389.5146,-9.015644E-05
389.6146,-9.009994E-05
389.7146,-9.007734E-05
389.8146,-9.003025E-05
389.9146,-8.998316E-05
390.0146,-8.997657E-05
390.1146,-8.991441E-05
390.2146,-8.985886E-05
390.3146,-8.982872E-05
390.4146,-8.980423E-05
390.5146,-8.976845E-05
390.6146,-8.973078E-05
390.7146,-8.968369E-05
390.8146,-8.965544E-05
390.9146,-8.964697E-05
391.0146,-8.959235E-05
391.1147,-8.953114E-05
391.2147,-8.949346E-05
391.3147,-8.946615E-05
391.4147,-8.940964E-05
391.5147,-8.940964E-05
391.6147,-8.934467E-05
391.7147,-8.92797E-05
391.8147,-8.927215E-05
391.9147,-8.925709E-05
392.0147,-8.920058E-05
392.1147,-8.915162E-05
392.2147,-8.912995E-05
392.3147,-8.909887E-05
392.4147,-8.904708E-05
392.5147,-8.901789E-05
392.6147,-8.896892E-05
392.7148,-8.890582E-05
392.8148,-8.892277E-05
392.9148,-8.885119E-05
393.0148,-8.877775E-05
393.1148,-8.877021E-05
393.2148,-8.874385E-05
393.3148,-8.869958E-05
393.4148,-8.868358E-05
393.5148,-8.862048E-05
393.6148,-8.859223E-05
393.7148,-8.856397E-05
393.8148,-8.85329E-05
393.9148,-8.846509E-05
394.0148,-8.846416E-05
394.1148,-8.841612E-05
394.2148,-8.835398E-05
394.3148,-8.835491E-05
394.4149,-8.834172E-05
394.5149,-8.826543E-05
394.6149,-8.822871E-05
394.7149,-8.823625E-05
394.8149,-8.821553E-05
394.9149,-8.814679E-05
395.0149,-8.812513E-05
395.1149,-8.810253E-05
395.2149,-8.805544E-05
395.3149,-8.801778E-05
395.4149,-8.798481E-05
395.5149,-8.796221E-05
395.6149,-8.793207E-05
395.7149,-8.786144E-05
395.8149,-8.783978E-05
395.9149,-8.785579E-05
396.015,-8.781907E-05
396.115,-8.777574E-05
396.215,-8.775785E-05
396.315,-8.775879E-05
396.415,-8.769946E-05
396.515,-8.767027E-05
396.615,-8.767591E-05
396.715,-8.762412E-05
396.815,-8.757986E-05
396.915,-8.757421E-05
397.015,-8.74904E-05
397.115,-8.74565E-05
397.215,-8.745838E-05
397.315,-8.733313E-05
397.415,-8.731053E-05
397.515,-8.736609E-05
397.6151,-8.730582E-05
397.7151,-8.723049E-05
397.8151,-8.719281E-05
397.9151,-8.717398E-05
398.0151,-8.713442E-05
398.1151,-8.710711E-05
398.2151,-8.705814E-05
398.3151,-8.700918E-05
398.4151,-8.700259E-05
398.5151,-8.696397E-05
398.6151,-8.690276E-05
398.7151,-8.686037E-05
398.8151,-8.686415E-05
398.9151,-8.681424E-05
399.0151,-8.676339E-05
399.1151,-8.673043E-05
399.2151,-8.670217E-05
399.3152,-8.665979E-05
399.4152,-8.665038E-05
399.5152,-8.660046E-05
399.6152,-8.65562E-05
399.7152,-8.654679E-05
399.8152,-8.649781E-05
399.9152,-8.646485E-05
400.0152,-8.647521E-05
400.1152,-8.641494E-05
400.2152,-8.635373E-05
400.3152,-8.637539E-05
400.4152,-8.633772E-05
400.5152,-8.627839E-05
400.6152,-8.628216E-05
400.7152,-8.623413E-05
400.8152,-8.619646E-05
400.9153,-8.616633E-05
401.0153,-8.613996E-05
401.1153,-8.610229E-05
401.2153,-8.605803E-05
401.3153,-8.604296E-05
401.4153,-8.600529E-05
401.5153,-8.595349E-05
401.6153,-8.596008E-05
401.7153,-8.593559E-05
401.8153,-8.586027E-05
401.9153,-8.586968E-05
402.0153,-8.583201E-05
402.1153,-8.575196E-05
402.2153,-8.572466E-05
402.3153,-8.568323E-05
402.4153,-8.563424E-05
402.5154,-8.563708E-05
402.6154,-8.559752E-05
402.7154,-8.552972E-05
402.8154,-8.550147E-05
402.9154,-8.550147E-05
403.0154,-8.54346E-05
403.1154,-8.540069E-05
403.2154,-8.538375E-05
403.3154,-8.536491E-05
403.4154,-8.532818E-05
403.5154,-8.530182E-05
403.6154,-8.524908E-05
403.7154,-8.519446E-05
403.8154,-8.519257E-05
403.9154,-8.516244E-05
404.0154,-8.510405E-05
404.1154,-8.509087E-05
404.2155,-8.503153E-05
404.3155,-8.498728E-05
404.4155,-8.500988E-05
404.5155,-8.495244E-05
404.6155,-8.490912E-05
404.7155,-8.48997E-05
404.8155,-8.487333E-05
404.9155,-8.482718E-05
405.0155,-8.480741E-05
405.1155,-8.478764E-05
405.2155,-8.473302E-05
405.3155,-8.470193E-05
405.4155,-8.468781E-05
405.5155,-8.46492E-05
405.6155,-8.46426E-05
405.7155,-8.459552E-05
405.8156,-8.453713E-05
405.9156,-8.456821E-05
406.0156,-8.455596E-05
406.1156,-8.450794E-05
406.2156,-8.447215E-05
406.3156,-8.445332E-05
406.4156,-8.440812E-05
406.5156,-8.433089E-05
406.6156,-8.429981E-05
406.7156,-8.42904E-05
406.8156,-8.424048E-05
406.9156,-8.419246E-05
407.0156,-8.416232E-05
407.1156,-8.413878E-05
407.2156,-8.407945E-05
407.3156,-8.403613E-05
407.4156,-8.403613E-05
407.5157,-8.397021E-05
407.6157,-8.396927E-05
407.7157,-8.390335E-05
407.8157,-8.389016E-05
407.9157,-8.386191E-05
408.0157,-8.38167E-05
408.1157,-8.37781E-05
408.2157,-8.375832E-05
408.3157,-8.372065E-05
408.4157,-8.36858E-05
408.5157,-8.367262E-05
408.6157,-8.361706E-05
408.7157,-8.357374E-05
408.8157,-8.359069E-05
408.9157,-8.353042E-05
409.0157,-8.346639E-05
409.1158,-8.346733E-05
409.2158,-8.34419E-05
409.3158,-8.344473E-05
409.4158,-8.342871E-05
409.5158,-8.333642E-05
409.6158,-8.333172E-05
409.7158,-8.330346E-05
409.8158,-8.327427E-05
409.9158,-8.321212E-05
410.0158,-8.318198E-05
410.1158,-8.318575E-05
410.2158,-8.312547E-05
410.3158,-8.30831E-05
410.4158,-8.305672E-05
410.5158,-8.303318E-05
410.6158,-8.298233E-05
410.7159,-8.298327E-05
410.8159,-8.290699E-05
410.9159,-8.289004E-05
411.0159,-8.290606E-05
411.1159,-8.284861E-05
411.2159,-8.280058E-05
411.3159,-8.279116E-05
411.4159,-8.275725E-05
411.5159,-8.273466E-05
411.6159,-8.27243E-05
411.7159,-8.265932E-05
411.8159,-8.262164E-05
411.9159,-8.260753E-05
412.0159,-8.256703E-05
412.1159,-8.253312E-05
412.2159,-8.253501E-05
412.3159,-8.248322E-05
412.416,-8.242388E-05
412.516,-8.238998E-05
412.616,-8.236549E-05
412.716,-8.235608E-05
412.816,-8.231371E-05
412.916,-8.224872E-05
413.016,-8.223177E-05
413.116,-8.220352E-05
413.216,-8.218186E-05
413.316,-8.213572E-05
413.416,-8.209616E-05
413.516,-8.208768E-05
413.616,-8.205472E-05
413.716,-8.199352E-05
413.816,-8.197751E-05
413.916,-8.197091E-05
414.0161,-8.192853E-05
414.1161,-8.191158E-05
414.2161,-8.187674E-05
414.3161,-8.183059E-05
414.4161,-8.183248E-05
414.5161,-8.178351E-05
414.6161,-8.174396E-05
414.7161,-8.173547E-05
414.8161,-8.168275E-05
414.9161,-8.169121E-05
415.0161,-8.166108E-05
415.1161,-8.16074E-05
415.2161,-8.156597E-05
415.3161,-8.155372E-05
415.4161,-8.151228E-05
415.5161,-8.14718E-05
415.6161,-8.145956E-05
415.7162,-8.143695E-05
415.8162,-8.13795E-05
415.9162,-8.138233E-05
416.0162,-8.133901E-05
416.1162,-8.126085E-05
416.2162,-8.124766E-05
416.3162,-8.125803E-05
416.4162,-8.12373E-05
416.5162,-8.116574E-05
416.6162,-8.115631E-05
416.7162,-8.1129E-05
416.8162,-8.108004E-05
416.9162,-8.105367E-05
417.0162,-8.101223E-05
417.1162,-8.097927E-05
417.2162,-8.096985E-05
417.3163,-8.092936E-05
417.4163,-8.088792E-05
417.5163,-8.08446E-05
417.6163,-8.081729E-05
417.7163,-8.078339E-05
417.8163,-8.077209E-05
417.9163,-8.076456E-05
418.0163,-8.068545E-05
418.1163,-8.067321E-05
418.2163,-8.064401E-05
418.3163,-8.059975E-05
418.4163,-8.056303E-05
418.5163,-8.054137E-05
418.6163,-8.049993E-05
418.7163,-8.048958E-05
418.8163,-8.047451E-05
418.9164,-8.041329E-05
419.0164,-8.039257E-05
419.1164,-8.039822E-05
419.2164,-8.032759E-05
419.3164,-8.028239E-05
419.4164,-8.027203E-05
419.5164,-8.024472E-05
419.6164,-8.021176E-05
419.7164,-8.016091E-05
419.8164,-8.013453E-05
419.9164,-8.012135E-05
420.0164,-8.011099E-05
420.1164,-8.003943E-05
420.2164,-8.004036E-05
420.3164,-8.002153E-05
420.4164,-7.997256E-05
420.5164,-7.994525E-05
420.6165,-7.993019E-05
420.7165,-7.98652E-05
420.8165,-7.987273E-05
420.9165,-7.986897E-05
421.0165,-7.981151E-05
421.1165,-7.976915E-05
421.2165,-7.97569E-05
421.3165,-7.972959E-05
421.4165,-7.96712E-05
421.5165,-7.964578E-05
421.6165,-7.96213E-05
421.7165,-7.960622E-05
421.8165,-7.958268E-05
421.9165,-7.954784E-05
422.0165,-7.948569E-05
422.1165,-7.947344E-05
422.2166,-7.946873E-05
422.3166,-7.941034E-05
422.4166,-7.937456E-05
422.5166,-7.938116E-05
422.6166,-7.937362E-05
422.7166,-7.932747E-05
422.8166,-7.93077E-05
422.9166,-7.925025E-05
423.0166,-7.922483E-05
423.1166,-7.920316E-05
423.2166,-7.91702E-05
423.3166,-7.911464E-05
423.4166,-7.909675E-05
423.5166,-7.90685E-05
423.6166,-7.903271E-05
423.7166,-7.902235E-05
423.8167,-7.900164E-05
423.9167,-7.896114E-05
424.0167,-7.892912E-05
424.1167,-7.890182E-05
424.2167,-7.887827E-05
424.3167,-7.883213E-05
424.4167,-7.884531E-05
424.5167,-7.881047E-05
424.6167,-7.874642E-05
424.7167,-7.87436E-05
424.8167,-7.870405E-05
424.9167,-7.866073E-05
425.0167,-7.860611E-05
425.1167,-7.858068E-05
425.2167,-7.85496E-05
425.3167,-7.855055E-05
425.4167,-7.849027E-05
425.5168,-7.846767E-05
425.6168,-7.844225E-05
425.7168,-7.839515E-05
425.8168,-7.834995E-05
425.9168,-7.832358E-05
426.0168,-7.831323E-05
426.1168,-7.826331E-05
426.2168,-7.82313E-05
426.3168,-7.822282E-05
426.4168,-7.819457E-05
426.5168,-7.815313E-05
426.6168,-7.8139E-05
426.7168,-7.812205E-05
426.8168,-7.808157E-05
426.9168,-7.80778E-05
427.0168,-7.802977E-05
427.1169,-7.799304E-05
427.2169,-7.800622E-05
427.3169,-7.793371E-05
427.4169,-7.791205E-05
427.5169,-7.792241E-05
427.6169,-7.786026E-05
427.7169,-7.781223E-05
427.8169,-7.787061E-05
427.9169,-7.782165E-05
428.0169,-7.773689E-05
428.1169,-7.777456E-05
428.2169,-7.775572E-05
428.3169,-7.770581E-05
428.4169,-7.771146E-05
428.5169,-7.768698E-05
428.6169,-7.76286E-05
428.7169,-7.761729E-05
428.817,-7.760504E-05
428.917,-7.757868E-05
429.017,-7.751276E-05
429.117,-7.748545E-05
429.217,-7.744777E-05
429.317,-7.738845E-05
429.417,-7.735737E-05
429.517,-7.732253E-05
429.617,-7.727544E-05
429.717,-7.725189E-05
429.817,-7.72001E-05
429.917,-7.718692E-05
430.017,-7.717185E-05
430.117,-7.714076E-05
430.217,-7.710781E-05
430.317,-7.707203E-05
430.4171,-7.706826E-05
430.5171,-7.703342E-05
430.6171,-7.699386E-05
430.7171,-7.702118E-05
430.8171,-7.693547E-05
430.9171,-7.688745E-05
431.0171,-7.690251E-05
431.1171,-7.685449E-05
431.2171,-7.680834E-05
431.3171,-7.681399E-05
431.4171,-7.679986E-05
431.5171,-7.677067E-05
431.6171,-7.677161E-05
431.7171,-7.671981E-05
431.8171,-7.668027E-05
431.9171,-7.669156E-05
432.0172,-7.666142E-05
432.1172,-7.659363E-05
432.2172,-7.661151E-05
432.3172,-7.655125E-05
432.4172,-7.649192E-05
432.5172,-7.649945E-05
432.6172,-7.650322E-05
432.7172,-7.643636E-05
432.8172,-7.639492E-05
432.9172,-7.639021E-05
433.0172,-7.636667E-05
433.1172,-7.634312E-05
433.2172,-7.630356E-05
433.3172,-7.624613E-05
433.4172,-7.622353E-05
433.5172,-7.620563E-05
433.6172,-7.615949E-05
433.7173,-7.61237E-05
433.8173,-7.611335E-05
433.9173,-7.608038E-05
434.0173,-7.604554E-05
434.1173,-7.601635E-05
434.2173,-7.597115E-05
434.3173,-7.595608E-05
434.4173,-7.595137E-05
434.5173,-7.588544E-05
434.6173,-7.585626E-05
434.7173,-7.585531E-05
434.8173,-7.582611E-05
434.9173,-7.580352E-05
435.0173,-7.576773E-05
435.1173,-7.572347E-05
435.2173,-7.568957E-05
435.3174,-7.568391E-05
435.4174,-7.567168E-05
435.5174,-7.56227E-05
435.6174,-7.558315E-05
435.7174,-7.556714E-05
435.8174,-7.554925E-05
435.9174,-7.553135E-05
436.0174,-7.548426E-05
436.1174,-7.544566E-05
436.2174,-7.545036E-05
436.3174,-7.54334E-05
436.4174,-7.535054E-05
436.5174,-7.53383E-05
436.6174,-7.536184E-05
436.7174,-7.52931E-05
436.8174,-7.524884E-05
436.9174,-7.527897E-05
437.0175,-7.524884E-05
437.1175,-7.519986E-05
437.2175,-7.516125E-05
437.3175,-7.512829E-05
437.4175,-7.510287E-05
437.5175,-7.509062E-05
437.6175,-7.505201E-05
437.7175,-7.499739E-05
437.8175,-7.499362E-05
437.9175,-7.496066E-05
438.0175,-7.492205E-05
438.1175,-7.491453E-05
438.2175,-7.489757E-05
438.3175,-7.486084E-05
438.4175,-7.482788E-05
438.5175,-7.481752E-05
438.6176,-7.479586E-05
438.7176,-7.473936E-05
438.8176,-7.475725E-05
438.9176,-7.472617E-05
439.0176,-7.468004E-05
439.1176,-7.466308E-05
439.2176,-7.464142E-05
439.3176,-7.46028E-05
439.4176,-7.45416E-05
439.5176,-7.45463E-05
439.6176,-7.450392E-05
439.7176,-7.446625E-05
439.8176,-7.445402E-05
439.9176,-7.443518E-05
440.0176,-7.440034E-05
440.1176,-7.435795E-05
440.2177,-7.434289E-05
440.3177,-7.431747E-05
440.4177,-7.430804E-05
440.5177,-7.423365E-05
440.6177,-7.420446E-05
440.7177,-7.42167E-05
440.8177,-7.417337E-05
440.9177,-7.410369E-05
441.0177,-7.414984E-05
441.1177,-7.410839E-05
441.2177,-7.406414E-05
441.3177,-7.406131E-05
441.4177,-7.402176E-05
441.5177,-7.398691E-05
441.6177,-7.395113E-05
441.7177,-7.3937E-05
441.8177,-7.389369E-05
441.9178,-7.386826E-05
442.0178,-7.38287E-05
442.1178,-7.381081E-05
442.2178,-7.377314E-05
442.3178,-7.375996E-05
442.4178,-7.370346E-05
442.5178,-7.369121E-05
442.6178,-7.367332E-05
442.7178,-7.363094E-05
442.8178,-7.36008E-05
442.9178,-7.359704E-05
443.0178,-7.356408E-05
443.1178,-7.351604E-05
443.2178,-7.34991E-05
443.3178,-7.345295E-05
443.4178,-7.344825E-05
443.5179,-7.343977E-05
443.6179,-7.337856E-05
443.7179,-7.33503E-05
443.8179,-7.334465E-05
443.9179,-7.331734E-05
444.0179,-7.327874E-05
444.1179,-7.326555E-05
444.2179,-7.322412E-05
444.3179,-7.319021E-05
444.4179,-7.320246E-05
444.5179,-7.319492E-05
444.6179,-7.314877E-05
444.7179,-7.309697E-05
444.8179,-7.309886E-05
444.9179,-7.305931E-05
445.0179,-7.301599E-05
445.118,-7.30094E-05
445.218,-7.296702E-05
445.318,-7.295101E-05
445.418,-7.291993E-05
445.518,-7.288321E-05
445.618,-7.284741E-05
445.718,-7.2838E-05
445.818,-7.280221E-05
445.918,-7.277491E-05
446.018,-7.277961E-05
446.118,-7.27297E-05
446.218,-7.269768E-05
446.318,-7.269486E-05
446.418,-7.265154E-05
446.518,-7.261858E-05
446.618,-7.259409E-05
446.718,-7.254419E-05
446.8181,-7.253099E-05
446.9181,-7.253476E-05
447.0181,-7.249239E-05
447.1181,-7.243871E-05
447.2181,-7.242458E-05
447.3181,-7.241988E-05
447.4181,-7.237562E-05
447.5181,-7.236526E-05
447.6181,-7.232382E-05
447.7181,-7.231157E-05
447.8181,-7.227955E-05
447.9181,-7.224189E-05
448.0181,-7.222775E-05
448.1181,-7.221364E-05
448.2181,-7.219857E-05
448.3181,-7.214017E-05
448.4182,-7.208744E-05
448.5182,-7.211947E-05
448.6182,-7.207897E-05
448.7182,-7.204225E-05
448.8182,-7.201681E-05
448.9182,-7.198856E-05
449.0182,-7.196314E-05
449.1182,-7.19622E-05
449.2182,-7.192264E-05
449.3182,-7.189156E-05
449.4182,-7.186519E-05
449.5182,-7.184542E-05
449.6182,-7.181057E-05
449.7182,-7.179927E-05
449.8182,-7.177008E-05
449.9182,-7.174182E-05
450.0182,-7.171075E-05
450.1183,-7.169191E-05
450.2183,-7.164766E-05
450.3183,-7.165236E-05
450.4183,-7.164106E-05
450.5183,-7.157702E-05
450.6183,-7.156572E-05
450.7183,-7.157043E-05
450.8183,-7.156196E-05
450.9183,-7.150263E-05
451.0183,-7.150546E-05
451.1183,-7.147909E-05
451.2183,-7.144047E-05
451.3183,-7.142824E-05
451.4183,-7.139339E-05
451.5183,-7.137455E-05
451.6183,-7.135854E-05
451.7184,-7.13237E-05
451.8184,-7.12945E-05
451.9184,-7.128603E-05
452.0184,-7.127096E-05
452.1184,-7.120598E-05
452.2184,-7.118149E-05
452.3184,-7.119185E-05
452.4184,-7.115513E-05
452.5184,-7.110522E-05
452.6184,-7.110427E-05
452.7184,-7.109768E-05
452.8184,-7.104212E-05
452.9184,-7.103271E-05
453.0184,-7.09762E-05
453.1184,-7.096207E-05
453.2184,-7.096019E-05
453.3185,-7.090651E-05
453.4185,-7.086131E-05
453.5185,-7.089991E-05
453.6185,-7.084718E-05
453.7185,-7.078973E-05
453.8185,-7.082363E-05
453.9185,-7.079915E-05
454.0185,-7.075772E-05
454.1185,-7.075018E-05
454.2185,-7.073418E-05
454.3185,-7.070122E-05
454.4185,-7.06918E-05
454.5185,-7.067955E-05
454.6185,-7.063529E-05
454.7185,-7.063436E-05
454.8185,-7.06174E-05
454.9185,-7.054582E-05
455.0186,-7.052699E-05
455.1186,-7.052699E-05
455.2186,-7.047049E-05
455.3186,-7.043E-05
455.4186,-7.04639E-05
455.5186,-7.041022E-05
455.6186,-7.036972E-05
455.7186,-7.03669E-05
455.8186,-7.034053E-05
455.9186,-7.032264E-05
456.0186,-7.030945E-05
456.1186,-7.027838E-05
456.2186,-7.023787E-05
456.3186,-7.02134E-05
456.4186,-7.018515E-05
456.5186,-7.017572E-05
456.6187,-7.016161E-05
456.7187,-7.01098E-05
456.8187,-7.008532E-05
456.9187,-7.00533E-05
457.0187,-7.004294E-05
457.1187,-6.996666E-05
457.2187,-6.998644E-05
457.3187,-6.995066E-05
457.4187,-6.987626E-05
457.5187,-6.987343E-05
457.6187,-6.988097E-05
457.7187,-6.983388E-05
457.8187,-6.978208E-05
457.9187,-6.975477E-05
458.0187,-6.976042E-05
458.1187,-6.971804E-05
458.2188,-6.969733E-05
458.3188,-6.966342E-05
458.4188,-6.962106E-05
458.5188,-6.962199E-05
458.6188,-6.958902E-05
458.7188,-6.957396E-05
458.8188,-6.954571E-05
458.9188,-6.951558E-05
459.0188,-6.947979E-05
459.1188,-6.945907E-05
459.2188,-6.946095E-05
459.3188,-6.940539E-05
459.4188,-6.938185E-05
459.5188,-6.938373E-05
459.6188,-6.934606E-05
459.7188,-6.932346E-05
459.8188,-6.931592E-05
459.9189,-6.927166E-05
460.0189,-6.924906E-05
460.1189,-6.92453E-05
460.2189,-6.922364E-05
460.3189,-6.919821E-05
460.4189,-6.918691E-05
460.5189,-6.914171E-05
460.6189,-6.916242E-05
460.7189,-6.912287E-05
460.8189,-6.908709E-05
460.9189,-6.907484E-05
461.0189,-6.906825E-05
461.1189,-6.905977E-05
461.2189,-6.899856E-05
461.3189,-6.898444E-05
461.4189,-6.895807E-05
461.519,-6.894112E-05
461.619,-6.892982E-05
461.719,-6.891569E-05
461.819,-6.888744E-05
461.919,-6.887426E-05
462.019,-6.885259E-05
462.119,-6.883187E-05
462.219,-6.88413E-05
462.319,-6.886672E-05
462.419,-6.882528E-05
462.519,-6.877726E-05
462.619,-6.87716E-05
462.719,-6.873959E-05
462.819,-6.867461E-05
462.919,-6.868967E-05
463.019,-6.866708E-05
463.119,-6.857383E-05
463.2191,-6.857196E-05
463.3191,-6.857855E-05
463.4191,-6.850133E-05
463.5191,-6.848249E-05
463.6191,-6.850227E-05
463.7191,-6.854182E-05
463.8191,-6.848531E-05
463.9191,-6.847685E-05
464.0191,-6.848061E-05
464.1191,-6.84194E-05
464.2191,-6.837231E-05
464.3191,-6.836478E-05
464.4191,-6.833841E-05
464.5191,-6.829132E-05
464.6191,-6.828002E-05
464.7191,-6.826872E-05
464.8192,-6.822352E-05
464.9192,-6.818303E-05
465.0192,-6.821881E-05
465.1192,-6.815478E-05
465.2192,-6.81171E-05
465.3192,-6.811616E-05
465.4192,-6.808979E-05
465.5192,-6.80832E-05
465.6192,-6.800974E-05
465.7192,-6.798055E-05
465.8192,-6.798431E-05
465.9192,-6.793629E-05
466.0192,-6.789203E-05
466.1192,-6.793912E-05
466.2192,-6.791651E-05
466.3192,-6.784117E-05
466.4193,-6.783834E-05
466.5193,-6.785907E-05
466.6193,-6.779502E-05
466.7193,-6.778185E-05
466.8193,-6.777714E-05
466.9193,-6.774418E-05
467.0193,-6.773758E-05
467.1193,-6.769427E-05
467.2193,-6.765942E-05
467.3193,-6.764341E-05
467.4193,-6.762269E-05
467.5193,-6.761515E-05
467.6193,-6.755113E-05
467.7193,-6.757655E-05
467.8193,-6.753606E-05
467.9193,-6.747672E-05
468.0193,-6.74739E-05
468.1194,-6.744282E-05
468.2194,-6.740986E-05
468.3194,-6.738726E-05
468.4194,-6.735336E-05
468.5194,-6.734394E-05
468.6194,-6.730533E-05
468.7194,-6.727331E-05
468.8194,-6.724789E-05
468.9194,-6.722811E-05
469.0194,-6.720927E-05
469.1194,-6.716219E-05
469.2194,-6.715089E-05
469.3194,-6.713676E-05
469.4194,-6.709721E-05
469.5194,-6.705765E-05
469.6194,-6.704729E-05
469.7195,-6.703977E-05
469.8195,-6.699174E-05
469.9195,-6.698703E-05
470.0195,-6.693617E-05
470.1195,-6.692864E-05
470.2195,-6.692864E-05
470.3195,-6.6858E-05
470.4195,-6.683258E-05
470.5195,-6.685141E-05
470.6195,-6.681657E-05
470.7195,-6.678644E-05
470.8195,-6.677419E-05
470.9195,-6.674877E-05
471.0195,-6.674218E-05
471.1195,-6.670827E-05
471.2195,-6.668943E-05
471.3195,-6.665836E-05
471.4196,-6.664895E-05
471.5196,-6.662351E-05
471.6196,-6.657831E-05
471.7196,-6.658302E-05
471.8196,-6.655571E-05
471.9196,-6.650203E-05
472.0196,-6.651993E-05
472.1196,-6.653499E-05
472.2196,-6.648791E-05
472.3196,-6.64493E-05
472.4196,-6.642858E-05
472.5196,-6.643046E-05
472.6196,-6.639562E-05
472.7196,-6.639939E-05
472.8196,-6.634759E-05
472.9196,-6.629768E-05
473.0197,-6.631463E-05
473.1197,-6.629579E-05
473.2197,-6.62553E-05
473.3197,-6.624682E-05
473.4197,-6.620068E-05
473.5197,-6.619032E-05
473.6197,-6.616301E-05
473.7197,-6.616207E-05
473.8197,-6.612346E-05
473.9197,-6.611122E-05
474.0197,-6.608485E-05
474.1197,-6.606319E-05
474.2197,-6.603965E-05
474.3197,-6.601421E-05
474.4197,-6.600386E-05
474.5197,-6.59869E-05
474.6198,-6.596524E-05
474.7198,-6.591251E-05
474.8198,-6.590308E-05
474.9198,-6.592664E-05
475.0198,-6.586825E-05
475.1198,-6.582964E-05
475.2198,-6.582493E-05
475.3198,-6.583906E-05
475.4198,-6.578914E-05
475.5198,-6.576278E-05
475.6198,-6.574865E-05
475.7198,-6.572322E-05
475.8198,-6.572888E-05
475.9198,-6.568273E-05
476.0198,-6.567049E-05
476.1198,-6.570627E-05
476.2198,-6.568367E-05
476.3199,-6.562434E-05
476.4199,-6.563753E-05
476.5199,-6.564883E-05
476.6199,-6.558008E-05
476.7199,-6.556125E-05
476.8199,-6.55556E-05
476.9199,-6.554335E-05
477.0199,-6.549061E-05
477.1199,-6.54859E-05
477.2199,-6.546519E-05
477.3199,-6.544918E-05
477.4199,-6.545954E-05
477.5199,-6.540398E-05
477.6199,-6.538514E-05
477.7199,-6.539927E-05
477.8199,-6.533993E-05
477.92,-6.529285E-05
478.02,-6.529945E-05
478.12,-6.524388E-05
478.22,-6.52015E-05
478.32,-6.517325E-05
478.42,-6.513746E-05
478.52,-6.512051E-05
478.62,-6.509414E-05
478.72,-6.505271E-05
478.82,-6.502728E-05
478.92,-6.504518E-05
479.02,-6.501316E-05
479.12,-6.49623E-05
479.22,-6.495759E-05
479.32,-6.494723E-05
479.42,-6.491427E-05
479.5201,-6.487095E-05
479.6201,-6.485495E-05
479.7201,-6.483893E-05
479.8201,-6.481351E-05
479.9201,-6.477678E-05
480.0201,-6.475794E-05
480.1201,-6.472592E-05
480.2201,-6.471462E-05
480.3201,-6.466659E-05
480.4201,-6.464683E-05
480.5201,-6.466E-05
480.6201,-6.462234E-05
480.7201,-6.456772E-05
480.8201,-6.455736E-05
480.9201,-6.456112E-05
481.0201,-6.455077E-05
481.1201,-6.452722E-05
481.2202,-6.448579E-05
481.3202,-6.447825E-05
481.4202,-6.448767E-05
481.5202,-6.442646E-05
481.6202,-6.441234E-05
481.7202,-6.439821E-05
481.8202,-6.438408E-05
481.9202,-6.434829E-05
482.0202,-6.435112E-05
482.1202,-6.434642E-05
482.2202,-6.430309E-05
482.3202,-6.427483E-05
482.4202,-6.428991E-05
482.5202,-6.426354E-05
482.6202,-6.42174E-05
482.7202,-6.421551E-05
482.8203,-6.416277E-05
482.9203,-6.416371E-05
483.0203,-6.415806E-05
483.1203,-6.40912E-05
483.2203,-6.407519E-05
483.3203,-6.411003E-05
483.4203,-6.406389E-05
483.5203,-6.402528E-05
483.6203,-6.401868E-05
483.7203,-6.402151E-05
483.8203,-6.397066E-05
483.9203,-6.396783E-05
484.0203,-6.392829E-05
484.1203,-6.390944E-05
484.2203,-6.387649E-05
484.3203,-6.385012E-05
484.4203,-6.38002E-05
484.5204,-6.380869E-05
484.6204,-6.381716E-05
484.7204,-6.37663E-05
484.8204,-6.372769E-05
484.9204,-6.37437E-05
485.0204,-6.372581E-05
485.1204,-6.368155E-05
485.2204,-6.366647E-05
485.3204,-6.362599E-05
485.4204,-6.36062E-05
485.5204,-6.361186E-05
485.6204,-6.359114E-05
485.7204,-6.356007E-05
485.8204,-6.352993E-05
485.9204,-6.352145E-05
486.0204,-6.351674E-05
486.1205,-6.349886E-05
486.2205,-6.3448E-05
486.3205,-6.343763E-05
486.4205,-6.341881E-05
486.5205,-6.339715E-05
486.6205,-6.336795E-05
486.7205,-6.335948E-05
486.8205,-6.334253E-05
486.9205,-6.33058E-05
487.0205,-6.330109E-05
487.1205,-6.330014E-05
487.2205,-6.325683E-05
487.3205,-6.323046E-05
487.4205,-6.323987E-05
487.5205,-6.320974E-05
487.6205,-6.316077E-05
487.7206,-6.316171E-05
487.8206,-6.314476E-05
487.9206,-6.309579E-05
488.0206,-6.309296E-05
488.1206,-6.307413E-05
488.2206,-6.30487E-05
488.3206,-6.300821E-05
488.4206,-6.300445E-05
488.5206,-6.298278E-05
488.6206,-6.296018E-05
488.7206,-6.293758E-05
488.8206,-6.291122E-05
488.9206,-6.290838E-05
489.0206,-6.287354E-05
489.1206,-6.284152E-05
489.2206,-6.281986E-05
489.3206,-6.283775E-05
489.4207,-6.278784E-05
489.5207,-6.276053E-05
489.6207,-6.275112E-05
489.7207,-6.274076E-05
489.8207,-6.271251E-05
489.9207,-6.266919E-05
490.0207,-6.266824E-05
490.1207,-6.264658E-05
490.2207,-6.260892E-05
490.3207,-6.259385E-05
490.4207,-6.258161E-05
490.5207,-6.256277E-05
490.6207,-6.255336E-05
490.7207,-6.249968E-05
490.8207,-6.248838E-05
490.9207,-6.248555E-05
491.0208,-6.246672E-05
491.1208,-6.239232E-05
491.2208,-6.241303E-05
491.3208,-6.239232E-05
491.4208,-6.235182E-05
491.5208,-6.234052E-05
491.6208,-6.232734E-05
491.7208,-6.228402E-05
491.8208,-6.229155E-05
491.9208,-6.223599E-05
492.0208,-6.221998E-05
492.1208,-6.223976E-05
492.2208,-6.218702E-05
492.3208,-6.215312E-05
492.4208,-6.214558E-05
492.5208,-6.213993E-05
492.6208,-6.211074E-05
492.7209,-6.210132E-05
492.8209,-6.206648E-05
492.9209,-6.2042E-05
493.0209,-6.203446E-05
493.1209,-6.201751E-05
493.2209,-6.195347E-05
493.3209,-6.193558E-05
493.4209,-6.196006E-05
493.5209,-6.192993E-05
493.6209,-6.189414E-05
493.7209,-6.187248E-05
493.8209,-6.18414E-05
493.9209,-6.182822E-05
494.0209,-6.184611E-05
494.1209,-6.179244E-05
494.2209,-6.175853E-05
494.321,-6.176701E-05
494.421,-6.173876E-05
494.521,-6.172369E-05
494.621,-6.170014E-05
494.721,-6.167566E-05
494.821,-6.163893E-05
494.921,-6.165965E-05
495.021,-6.162858E-05
495.121,-6.157113E-05
495.221,-6.156265E-05
495.321,-6.155983E-05
495.421,-6.152781E-05
495.521,-6.150991E-05
495.621,-6.146942E-05
495.721,-6.145341E-05
495.821,-6.145059E-05
495.9211,-6.145059E-05
496.0211,-6.139314E-05
496.1211,-6.13583E-05
496.2211,-6.137808E-05
496.3211,-6.133946E-05
496.4211,-6.133004E-05
496.5211,-6.129708E-05
496.6211,-6.129143E-05
496.7211,-6.126318E-05
496.8211,-6.125659E-05
496.9211,-6.123305E-05
497.0211,-6.118973E-05
497.1211,-6.117843E-05
497.2211,-6.11643E-05
497.3211,-6.113699E-05
497.4211,-6.111909E-05
497.5211,-6.109838E-05
497.6212,-6.110968E-05
497.7212,-6.110026E-05
497.8212,-6.104753E-05
497.9212,-6.103529E-05
498.0212,-6.105035E-05
498.1212,-6.103057E-05
498.2212,-6.099856E-05
498.3212,-6.098161E-05
498.4212,-6.09656E-05
498.5212,-6.092981E-05
498.6212,-6.091097E-05
498.7212,-6.09138E-05
498.8212,-6.087048E-05
498.9212,-6.085824E-05
499.0212,-6.082716E-05
499.1212,-6.079138E-05
499.2213,-6.076877E-05
499.3213,-6.076689E-05
499.4213,-6.074523E-05
499.5213,-6.070379E-05
499.6213,-6.072263E-05
499.7213,-6.071038E-05
499.8213,-6.067743E-05
499.9213,-6.065482E-05
500.0213,-6.061527E-05
500.1213,-6.058984E-05
500.2213,-6.060774E-05
500.3213,-6.058043E-05
500.4213,-6.052298E-05
500.5213,-6.052675E-05
500.6213,-6.05258E-05
500.7213,-6.049096E-05
500.8214,-6.045047E-05
500.9214,-6.047401E-05
501.0214,-6.045235E-05
501.1214,-6.042033E-05
501.2214,-6.038455E-05
501.3214,-6.040715E-05
501.4214,-6.036289E-05
501.5214,-6.034217E-05
501.6214,-6.03045E-05
501.7214,-6.030167E-05
501.8214,-6.029414E-05
501.9214,-6.025459E-05
502.0214,-6.024988E-05
502.1214,-6.026683E-05
502.2214,-6.021409E-05
502.3214,-6.018113E-05
502.4214,-6.016889E-05
502.5215,-6.015194E-05
502.6215,-6.012275E-05
502.7215,-6.012463E-05
502.8215,-6.009072E-05
502.9215,-6.005682E-05
503.0215,-6.005871E-05
503.1215,-6.005212E-05
503.2215,-5.998431E-05
503.3215,-5.996547E-05
503.4215,-5.997866E-05
503.5215,-5.996642E-05
503.6215,-5.994287E-05
503.7215,-5.991651E-05
503.8215,-5.98826E-05
503.9215,-5.986377E-05
504.0215,-5.985906E-05
504.1216,-5.983928E-05
504.2216,-5.980444E-05
504.3216,-5.978937E-05
504.4216,-5.975829E-05
504.5216,-5.975076E-05
504.6216,-5.973475E-05
504.7216,-5.970273E-05
504.8216,-5.966506E-05
504.9216,-5.97065E-05
505.0216,-5.966412E-05
505.1216,-5.961798E-05
505.2216,-5.962551E-05
505.3216,-5.961986E-05
505.4216,-5.957843E-05
505.5216,-5.954546E-05
505.6216,-5.95577E-05
505.7216,-5.9569E-05
505.8217,-5.952474E-05
505.9217,-5.949649E-05
506.0217,-5.949367E-05
506.1217,-5.947954E-05
506.2217,-5.947201E-05
506.3217,-5.94447E-05
506.4217,-5.94221E-05
506.5217,-5.941927E-05
506.6217,-5.938725E-05
506.7217,-5.935241E-05
506.8217,-5.937407E-05
506.9217,-5.932886E-05
507.0217,-5.930627E-05
507.1217,-5.929025E-05
507.2217,-5.925918E-05
507.3217,-5.923846E-05
507.4218,-5.92394E-05
507.5218,-5.919891E-05
507.6218,-5.915747E-05
507.7218,-5.915935E-05
507.8218,-5.914617E-05
507.9218,-5.913581E-05
508.0218,-5.90972E-05
508.1218,-5.907271E-05
508.2218,-5.9068E-05
508.3218,-5.906612E-05
508.4218,-5.90341E-05
508.5218,-5.899455E-05
508.6218,-5.901245E-05
508.7218,-5.900962E-05
508.8218,-5.896442E-05
508.9218,-5.891733E-05
509.0219,-5.893805E-05
509.1219,-5.890226E-05
509.2219,-5.888154E-05
509.3219,-5.886365E-05
509.4219,-5.886836E-05
509.5219,-5.884764E-05
509.6219,-5.884105E-05
509.7219,-5.88128E-05
509.8219,-5.87949E-05
509.9219,-5.879867E-05
510.0219,-5.878737E-05
510.1219,-5.876477E-05
510.2219,-5.876006E-05
510.3219,-5.873275E-05
510.4219,-5.872898E-05
510.5219,-5.870732E-05
510.6219,-5.866118E-05
510.722,-5.86706E-05
510.822,-5.863575E-05
510.922,-5.860091E-05
511.022,-5.858772E-05
511.122,-5.858019E-05
511.222,-5.855853E-05
511.322,-5.850391E-05
511.422,-5.852275E-05
511.522,-5.852745E-05
511.622,-5.849072E-05
511.722,-5.845682E-05
511.822,-5.845306E-05
511.922,-5.843045E-05
512.022,-5.838525E-05
512.122,-5.839655E-05
512.222,-5.838996E-05
512.322,-5.834193E-05
512.4219,-5.834099E-05
512.5219,-5.83504E-05
512.6219,-5.830426E-05
512.7219,-5.82713E-05
512.8218,-5.829108E-05
512.9218,-5.827695E-05
513.0218,-5.823928E-05
513.1218,-5.822798E-05
513.2217,-5.819784E-05
513.3217,-5.820067E-05
513.4217,-5.817148E-05
513.5217,-5.815547E-05
513.6216,-5.814134E-05
513.7216,-5.81178E-05
513.8216,-5.810179E-05
513.9216,-5.806882E-05
514.0215,-5.8066E-05
514.1215,-5.804341E-05
514.2215,-5.80095E-05
514.3215,-5.800479E-05
514.4214,-5.798407E-05
514.5214,-5.79417E-05
514.6214,-5.794452E-05
514.7214,-5.792757E-05
514.8214,-5.788707E-05
514.9213,-5.785882E-05
515.0213,-5.787954E-05
515.1213,-5.784941E-05
515.2213,-5.781079E-05
515.3212,-5.778819E-05
515.4212,-5.778254E-05
515.5212,-5.777406E-05
515.6212,-5.775335E-05
515.7211,-5.769779E-05
515.8211,-5.767518E-05
515.9211,-5.77138E-05
516.0211,-5.769308E-05
516.121,-5.764317E-05
516.221,-5.763281E-05
516.321,-5.762998E-05
516.421,-5.760267E-05
516.5209,-5.761586E-05
516.6209,-5.756123E-05
516.7209,-5.753298E-05
516.8209,-5.754429E-05
516.9208,-5.751415E-05
517.0208,-5.749814E-05
517.1208,-5.749531E-05
517.2208,-5.745671E-05
517.3207,-5.743316E-05
517.4207,-5.743975E-05
517.5207,-5.742468E-05
517.6207,-5.739926E-05
517.7206,-5.737195E-05
517.8206,-5.737948E-05
517.9206,-5.734464E-05
518.0206,-5.732863E-05
518.1205,-5.73211E-05
518.2205,-5.729661E-05
518.3205,-5.727966E-05
518.4205,-5.726459E-05
518.5204,-5.720903E-05
518.6204,-5.719961E-05
518.7204,-5.72401E-05
518.8204,-5.721656E-05
518.9203,-5.716383E-05
519.0203,-5.715912E-05
519.1203,-5.717042E-05
519.2203,-5.715158E-05
519.3203,-5.713181E-05
519.4202,-5.713181E-05
519.5202,-5.706588E-05
519.6202,-5.707719E-05
519.7202,-5.708566E-05
519.8201,-5.703575E-05
519.9201,-5.70188E-05
520.0201,-5.700467E-05
520.1201,-5.696512E-05
520.22,-5.692745E-05
520.32,-5.695759E-05
520.42,-5.693028E-05
520.52,-5.690202E-05
520.6199,-5.689261E-05
520.7199,-5.687283E-05
520.8199,-5.683045E-05
520.9199,-5.686059E-05
521.0198,-5.684269E-05
521.1198,-5.678242E-05
521.2198,-5.678807E-05
521.3198,-5.679373E-05
521.4197,-5.67457E-05
521.5197,-5.670897E-05
521.6197,-5.673157E-05
521.7197,-5.669484E-05
521.8196,-5.66826E-05
521.9196,-5.667601E-05
522.0196,-5.665811E-05
522.1196,-5.662515E-05
522.2195,-5.663645E-05
522.3195,-5.661292E-05
522.4195,-5.659785E-05
522.5195,-5.657995E-05
522.6194,-5.656582E-05
522.7194,-5.657148E-05
522.8194,-5.652627E-05
522.9194,-5.651591E-05
523.0193,-5.65065E-05
523.1193,-5.650838E-05
523.2193,-5.646035E-05
523.3193,-5.646129E-05
523.4193,-5.645564E-05
523.5192,-5.642833E-05
523.6192,-5.637183E-05
523.7192,-5.637465E-05
523.8192,-5.639161E-05
523.9191,-5.632945E-05
524.0191,-5.630497E-05
524.1191,-5.63464E-05
524.2191,-5.633134E-05
524.319,-5.628425E-05
524.419,-5.626729E-05
524.519,-5.625411E-05
524.619,-5.623151E-05
524.7189,-5.624941E-05
524.8189,-5.622963E-05
524.9189,-5.616653E-05
525.0189,-5.616653E-05
525.1188,-5.618442E-05
525.2188,-5.612886E-05
525.3188,-5.609119E-05
525.4188,-5.60959E-05
525.5187,-5.613168E-05
525.6187,-5.607236E-05
525.7187,-5.605352E-05
525.8187,-5.605541E-05
525.9186,-5.600644E-05
526.0186,-5.60281E-05
526.1186,-5.600644E-05
526.2186,-5.598289E-05
526.3185,-5.595558E-05
526.4185,-5.592451E-05
526.5185,-5.591886E-05
526.6185,-5.590755E-05
526.7184,-5.586989E-05
526.8184,-5.584446E-05
526.9184,-5.585105E-05
527.0184,-5.581809E-05
527.1183,-5.580114E-05
527.2183,-5.579172E-05
527.3183,-5.576253E-05
527.4183,-5.575782E-05
527.5182,-5.575123E-05
527.6182,-5.570979E-05
527.7182,-5.570979E-05
527.8182,-5.568907E-05
527.9182,-5.567683E-05
528.0181,-5.564764E-05
528.1181,-5.563257E-05
528.2181,-5.561468E-05
528.3181,-5.561844E-05
528.418,-5.56062E-05
528.518,-5.559114E-05
528.618,-5.553369E-05
528.718,-5.55318E-05
528.8179,-5.555441E-05
528.9179,-5.550638E-05
529.0179,-5.548189E-05
529.1179,-5.549131E-05
529.2178,-5.546683E-05
529.3178,-5.544893E-05
529.4178,-5.542821E-05
529.5178,-5.540938E-05
529.6177,-5.542633E-05
529.7177,-5.541786E-05
529.8177,-5.537265E-05
529.9177,-5.538019E-05
530.0176,-5.538207E-05
530.1176,-5.533121E-05
530.2176,-5.53105E-05
530.3176,-5.530861E-05
530.4175,-5.529543E-05
530.5175,-5.528413E-05
530.6175,-5.525399E-05
530.7175,-5.523327E-05
530.8174,-5.522951E-05
530.9174,-5.522104E-05
531.0174,-5.520502E-05
531.1174,-5.516453E-05
531.2173,-5.515794E-05
531.3173,-5.517206E-05
531.4173,-5.513251E-05
531.5173,-5.50939E-05
531.6172,-5.510991E-05
531.7172,-5.507506E-05
531.8172,-5.50713E-05
531.9172,-5.504493E-05
532.0172,-5.503928E-05
532.1171,-5.506282E-05
532.2171,-5.505341E-05
532.3171,-5.499502E-05
532.4171,-5.501385E-05
532.517,-5.501197E-05
532.617,-5.496771E-05
532.717,-5.495923E-05
532.817,-5.495735E-05
532.9169,-5.493098E-05
533.0169,-5.489708E-05
533.1169,-5.486694E-05
533.2169,-5.485941E-05
533.3168,-5.483587E-05
533.4168,-5.484246E-05
533.5168,-5.481421E-05
533.6168,-5.476429E-05
533.7167,-5.476523E-05
533.8167,-5.4769E-05
533.9167,-5.476335E-05
534.0167,-5.471532E-05
534.1166,-5.469178E-05
534.2166,-5.466635E-05
534.3166,-5.466918E-05
534.4166,-5.468048E-05
534.5165,-5.461833E-05
534.6165,-5.45929E-05
534.7165,-5.461268E-05
534.8165,-5.458348E-05
534.9164,-5.454016E-05
535.0164,-5.455429E-05
535.1164,-5.453828E-05
535.2164,-5.453451E-05
535.3163,-5.450061E-05
535.4163,-5.448272E-05
535.5163,-5.445447E-05
535.6163,-5.446294E-05
535.7162,-5.445729E-05
535.8162,-5.441397E-05
535.9162,-5.440361E-05
536.0162,-5.439325E-05
536.1161,-5.436688E-05
536.2161,-5.436123E-05
536.3161,-5.435464E-05
536.4161,-5.431697E-05
536.5161,-5.431415E-05
536.616,-5.431415E-05
536.716,-5.428684E-05
536.816,-5.428024E-05
536.916,-5.428872E-05
537.0159,-5.424728E-05
537.1159,-5.422468E-05
537.2159,-5.423975E-05
537.3159,-5.419643E-05
537.4158,-5.417854E-05
537.5158,-5.416535E-05
537.6158,-5.415876E-05
537.7158,-5.413145E-05
537.8157,-5.412297E-05
537.9157,-5.409849E-05
538.0157,-5.407118E-05
538.1157,-5.405046E-05
538.2156,-5.405517E-05
538.3156,-5.403257E-05
538.4156,-5.401844E-05
538.5156,-5.399396E-05
538.6155,-5.397983E-05
538.7155,-5.396759E-05
538.8155,-5.396382E-05
538.9155,-5.394028E-05
539.0154,-5.392333E-05
539.1154,-5.391014E-05
539.2154,-5.39092E-05
539.3154,-5.38866E-05
539.4153,-5.384893E-05
539.5153,-5.385176E-05
539.6153,-5.384516E-05
539.7153,-5.38414E-05
539.8152,-5.380373E-05
539.9152,-5.376606E-05
540.0152,-5.379902E-05
540.1152,-5.377548E-05
540.2151,-5.369731E-05
540.3151,-5.373215E-05
540.4151,-5.376135E-05
540.5151,-5.37331E-05
540.6151,-5.370296E-05
540.715,-5.372745E-05
540.815,-5.370955E-05
540.915,-5.366435E-05
541.015,-5.363987E-05
541.1149,-5.365682E-05
541.2149,-5.360973E-05
541.3149,-5.360785E-05
541.4149,-5.357112E-05
541.5148,-5.358148E-05
541.6148,-5.356547E-05
541.7148,-5.352968E-05
541.8148,-5.348919E-05
541.9147,-5.347977E-05
542.0147,-5.348542E-05
542.1147,-5.346376E-05
542.2147,-5.342421E-05
542.3146,-5.341008E-05
542.4146,-5.340161E-05
542.5146,-5.339502E-05
542.6146,-5.339219E-05
542.7145,-5.334322E-05
542.8145,-5.332344E-05
542.9145,-5.333286E-05
543.0145,-5.330649E-05
543.1144,-5.328012E-05
543.2144,-5.327165E-05
543.3144,-5.32321E-05
543.4144,-5.323115E-05
543.5143,-5.324999E-05
543.6143,-5.321327E-05
543.7143,-5.318501E-05
543.8143,-5.317559E-05
543.9142,-5.318407E-05
544.0142,-5.316618E-05
544.1142,-5.313604E-05
544.2142,-5.310779E-05
544.3141,-5.311815E-05
544.4141,-5.311532E-05
544.5141,-5.307294E-05
544.6141,-5.307106E-05
544.7141,-5.307671E-05
544.814,-5.308801E-05
544.914,-5.307671E-05
545.014,-5.303904E-05
545.114,-5.305882E-05
545.2139,-5.303904E-05
545.3139,-5.300985E-05
545.4139,-5.298348E-05
545.5139,-5.297124E-05
545.6138,-5.294675E-05
545.7138,-5.295052E-05
545.8138,-5.290155E-05
545.9138,-5.289496E-05
546.0137,-5.288083E-05
546.1137,-5.2862E-05
546.2137,-5.285352E-05
546.3137,-5.28328E-05
546.4136,-5.280172E-05
546.5136,-5.279607E-05
546.6136,-5.279607E-05
546.7136,-5.2765E-05
546.8135,-5.273486E-05
546.9135,-5.272827E-05
547.0135,-5.273203E-05
547.1135,-5.268307E-05
547.2134,-5.2668E-05
547.3134,-5.271132E-05
547.4134,-5.266706E-05
547.5134,-5.264916E-05
547.6133,-5.266423E-05
547.7133,-5.266706E-05
547.8133,-5.264446E-05
547.9133,-5.26341E-05
548.0132,-5.259643E-05
548.1132,-5.255782E-05
548.2132,-5.2571E-05
548.3132,-5.256723E-05
548.4131,-5.251638E-05
548.5131,-5.250131E-05
548.6131,-5.2474E-05
548.7131,-5.245893E-05
548.813,-5.24627E-05
548.913,-5.243257E-05
549.013,-5.239584E-05
549.113,-5.239584E-05
549.213,-5.237136E-05
549.3129,-5.2361E-05
549.4129,-5.233463E-05
549.5129,-5.232803E-05
549.6129,-5.228565E-05
549.7128,-5.228377E-05
549.8128,-5.229413E-05
549.9128,-5.225081E-05
550.0128,-5.223292E-05
550.1127,-5.222256E-05
550.2127,-5.219525E-05
550.3127,-5.219148E-05
550.4127,-5.218677E-05
550.5126,-5.218489E-05
550.6126,-5.216135E-05
550.7126,-5.216229E-05
550.8126,-5.212274E-05
550.9125,-5.210955E-05
551.0125,-5.210861E-05
551.1125,-5.208789E-05
551.2125,-5.205399E-05
551.3124,-5.206058E-05
551.4124,-5.202856E-05
551.5124,-5.200785E-05
551.6124,-5.204363E-05
551.7123,-5.199466E-05
551.8123,-5.196641E-05
551.9123,-5.196924E-05
552.0123,-5.197771E-05
552.1122,-5.192968E-05
552.2122,-5.192309E-05
552.3122,-5.194475E-05
552.4122,-5.192215E-05
552.5121,-5.188448E-05
552.6121,-5.190049E-05
552.7121,-5.18939E-05
552.8121,-5.187412E-05
552.912,-5.188448E-05
553.012,-5.185152E-05
553.112,-5.183928E-05
553.212,-5.185811E-05
553.312,-5.180349E-05
553.4119,-5.177335E-05
553.5119,-5.180255E-05
553.6119,-5.177147E-05
553.7119,-5.172533E-05
553.8118,-5.17404E-05
553.9118,-5.173662E-05
554.0118,-5.170931E-05
554.1118,-5.167259E-05
554.2117,-5.169519E-05
554.3117,-5.171026E-05
554.4117,-5.16773E-05
554.5117,-5.164151E-05
554.6116,-5.165187E-05
554.7116,-5.161797E-05
554.8116,-5.162268E-05
554.9116,-5.16029E-05
555.0115,-5.157654E-05
555.1115,-5.156052E-05
555.2115,-5.154357E-05
555.3115,-5.154734E-05
555.4114,-5.155676E-05
555.5114,-5.151155E-05
555.6114,-5.149084E-05
555.7114,-5.148801E-05
555.8113,-5.147294E-05
555.9113,-5.143339E-05
556.0113,-5.144186E-05
556.1113,-5.142492E-05
556.2112,-5.141455E-05
556.3112,-5.139949E-05
556.4112,-5.140514E-05
556.5112,-5.133168E-05
556.6111,-5.133639E-05
556.7111,-5.136558E-05
556.8111,-5.133357E-05
556.9111,-5.129684E-05
557.011,-5.130814E-05
557.111,-5.127801E-05
557.211,-5.126576E-05
557.311,-5.126576E-05
557.4109,-5.121585E-05
557.5109,-5.119984E-05
557.6109,-5.121962E-05
557.7109,-5.119702E-05
557.8109,-5.1165E-05
557.9108,-5.116217E-05
558.0108,-5.113486E-05
558.1108,-5.113674E-05
558.2108,-5.112073E-05
558.3107,-5.109154E-05
558.4107,-5.108966E-05
558.5107,-5.10793E-05
558.6107,-5.106988E-05
558.7106,-5.102091E-05
558.8106,-5.103409E-05
558.9106,-5.104351E-05
559.0106,-5.100773E-05
559.1105,-5.096818E-05
559.2105,-5.098889E-05
559.3105,-5.099078E-05
559.4105,-5.096818E-05
559.5104,-5.094934E-05
559.6104,-5.091638E-05
559.7104,-5.092015E-05
559.8104,-5.09145E-05
559.9103,-5.0874E-05
560.0103,-5.084198E-05
560.1103,-5.087118E-05
560.2103,-5.086176E-05
560.3102,-5.079207E-05
560.4102,-5.080525E-05
560.5102,-5.080714E-05
560.6102,-5.07657E-05
560.7101,-5.074875E-05
560.8101,-5.0777E-05
560.9101,-5.079678E-05
561.0101,-5.07431E-05
561.11,-5.07544E-05
561.21,-5.074028E-05
561.31,-5.072709E-05
561.41,-5.069978E-05
561.5099,-5.06753E-05
561.6099,-5.066682E-05
561.7099,-5.067435E-05
561.8099,-5.062162E-05
561.9099,-5.059996E-05
562.0098,-5.060184E-05
562.1098,-5.060278E-05
562.2098,-5.057265E-05
562.3098,-5.055852E-05
562.4097,-5.052932E-05
562.5097,-5.051803E-05
562.6097,-5.052556E-05
562.7097,-5.050201E-05
562.8096,-5.044081E-05
562.9096,-5.047376E-05
563.0096,-5.047565E-05
563.1096,-5.042103E-05
563.2095,-5.040502E-05
563.3095,-5.04361E-05
563.4095,-5.042197E-05
563.5095,-5.03956E-05
563.6094,-5.037489E-05
563.7094,-5.037677E-05
563.8094,-5.036076E-05
563.9094,-5.035981E-05
564.0093,-5.034192E-05
564.1093,-5.031838E-05
564.2093,-5.032498E-05
564.3093,-5.027694E-05
564.4092,-5.026941E-05
564.5092,-5.029672E-05
564.6092,-5.026659E-05
564.7092,-5.023928E-05
564.8091,-5.023362E-05
564.9091,-5.022421E-05
565.0091,-5.020254E-05
565.1091,-5.017147E-05
565.209,-5.015169E-05
565.309,-5.015734E-05
565.409,-5.014698E-05
565.509,-5.012627E-05
565.6089,-5.009896E-05
565.7089,-5.008295E-05
565.8089,-5.010272E-05
565.9089,-5.00255E-05
566.0089,-5.008483E-05
566.1088,-5.008295E-05
566.2088,-5.007071E-05
566.3088,-5.002739E-05
566.4088,-5.00594E-05
566.5087,-5.004998E-05
566.6087,-5.000478E-05
566.7087,-4.999631E-05
566.8087,-5.000572E-05
566.9086,-4.999254E-05
567.0086,-4.993886E-05
567.1086,-4.995016E-05
567.2086,-4.994074E-05
567.3085,-4.99398E-05
567.4085,-4.989931E-05
567.5085,-4.990778E-05
567.6085,-4.989554E-05
567.7084,-4.986729E-05
567.8084,-4.982491E-05
567.9084,-4.984657E-05
568.0084,-4.983056E-05
568.1083,-4.978159E-05
568.2083,-4.975617E-05
568.3083,-4.978536E-05
568.4083,-4.974863E-05
568.5082,-4.971567E-05
568.6082,-4.973168E-05
568.7082,-4.968648E-05
568.8082,-4.969872E-05
568.9081,-4.968177E-05
569.0081,-4.965634E-05
569.1081,-4.960832E-05
569.2081,-4.963374E-05
569.308,-4.962432E-05
569.408,-4.959984E-05
569.508,-4.956688E-05
569.608,-4.956688E-05
569.7079,-4.956217E-05
569.8079,-4.955275E-05
569.9079,-4.953109E-05
570.0079,-4.948871E-05
570.1078,-4.951508E-05
570.2078,-4.95245E-05
570.3078,-4.94793E-05
570.4078,-4.946611E-05
570.5078,-4.948118E-05
570.6077,-4.948871E-05
570.7077,-4.947176E-05
570.8077,-4.94567E-05
570.9077,-4.943315E-05
571.0076,-4.942185E-05
571.1076,-4.944822E-05
571.2076,-4.94049E-05
571.3076,-4.936723E-05
571.4075,-4.937759E-05
571.5075,-4.938324E-05
571.6075,-4.935499E-05
571.7075,-4.932297E-05
571.8074,-4.932956E-05
571.9074,-4.930602E-05
572.0074,-4.930884E-05
572.1074,-4.92853E-05
572.2073,-4.927117E-05
572.3073,-4.926552E-05
572.4073,-4.923539E-05
572.5073,-4.920243E-05
572.6072,-4.92175E-05
572.7072,-4.922126E-05
572.8072,-4.914781E-05
572.9072,-4.919772E-05
573.0071,-4.920055E-05
573.1071,-4.91544E-05
573.2071,-4.914687E-05
573.3071,-4.914498E-05
573.407,-4.915817E-05
573.507,-4.910825E-05
573.607,-4.911391E-05
573.707,-4.908471E-05
573.8069,-4.906117E-05
573.9069,-4.908094E-05
574.0069,-4.905175E-05
574.1069,-4.903103E-05
574.2068,-4.900937E-05
574.3068,-4.898018E-05
574.4068,-4.897547E-05
574.5068,-4.896888E-05
574.6068,-4.896511E-05
574.7067,-4.891991E-05
574.8067,-4.892462E-05
574.9067,-4.88926E-05
575.0067,-4.888884E-05
575.1066,-4.886246E-05
575.2066,-4.886341E-05
575.3066,-4.882385E-05
575.4066,-4.882009E-05
575.5065,-4.88182E-05
575.6065,-4.879843E-05
575.7065,-4.878806E-05
575.8065,-4.880125E-05
575.9064,-4.874098E-05
576.0064,-4.874098E-05
576.1064,-4.876735E-05
576.2064,-4.873627E-05
576.3063,-4.872403E-05
576.4063,-4.871555E-05
576.5063,-4.868165E-05
576.6063,-4.868071E-05
576.7062,-4.870236E-05
576.8062,-4.866658E-05
576.9062,-4.865057E-05
577.0062,-4.865622E-05
577.1061,-4.862797E-05
577.2061,-4.859407E-05
577.3061,-4.861102E-05
577.4061,-4.859596E-05
577.506,-4.858465E-05
577.606,-4.856393E-05
577.706,-4.85564E-05
577.806,-4.855075E-05
577.9059,-4.853851E-05
578.0059,-4.851873E-05
578.1059,-4.851308E-05
578.2059,-4.851967E-05
578.3058,-4.850837E-05
578.4058,-4.846693E-05
578.5058,-4.848106E-05
578.6058,-4.846976E-05
578.7057,-4.845186E-05
578.8057,-4.843021E-05
578.9057,-4.843209E-05
579.0057,-4.840855E-05
579.1057,-4.841043E-05
579.2056,-4.83963E-05
579.3056,-4.838689E-05
579.4056,-4.837747E-05
579.5056,-4.8369E-05
579.6055,-4.836052E-05
579.7055,-4.836617E-05
579.8055,-4.83737E-05
579.9055,-4.834074E-05
580.0054,-4.830872E-05
580.1054,-4.833415E-05
580.2054,-4.832473E-05
580.3054,-4.829836E-05
580.4053,-4.82833E-05
580.5053,-4.82428E-05
580.6053,-4.825693E-05
580.7053,-4.825034E-05
580.8052,-4.82315E-05
580.9052,-4.819572E-05
581.0052,-4.822585E-05
581.1052,-4.817217E-05
581.2051,-4.816088E-05
581.3051,-4.816935E-05
581.4051,-4.816276E-05
581.5051,-4.813545E-05
581.605,-4.810814E-05
581.705,-4.811756E-05
581.805,-4.811473E-05
581.905,-4.8078E-05
582.0049,-4.809119E-05
582.1049,-4.805634E-05
582.2049,-4.803562E-05
582.3049,-4.803656E-05
582.4048,-4.803845E-05
582.5048,-4.801114E-05
582.6048,-4.799701E-05
582.7048,-4.798006E-05
582.8047,-4.79989E-05
582.9047,-4.798571E-05
583.0047,-4.796499E-05
583.1047,-4.795275E-05
583.2047,-4.794427E-05
583.3046,-4.794616E-05
583.4046,-4.792261E-05
583.5046,-4.789342E-05
583.6046,-4.789625E-05
583.7045,-4.788683E-05
583.8045,-4.78501E-05
583.9045,-4.786423E-05
584.0045,-4.785575E-05
584.1044,-4.785575E-05
584.2044,-4.78388E-05
584.3044,-4.784351E-05
584.4044,-4.786234E-05
584.5043,-4.784633E-05
584.6043,-4.781714E-05
584.7043,-4.782938E-05
584.8043,-4.783221E-05
584.9042,-4.783315E-05
585.0042,-4.780678E-05
585.1042,-4.779642E-05
585.2042,-4.780867E-05
585.3041,-4.779925E-05
585.4041,-4.776818E-05
585.5041,-4.77597E-05
585.6041,-4.77258E-05
585.704,-4.772673E-05
585.804,-4.774933E-05
585.904,-4.771355E-05
586.004,-4.769849E-05
586.1039,-4.77079E-05
586.2039,-4.767682E-05
586.3039,-4.76401E-05
586.4039,-4.767117E-05
586.5038,-4.766552E-05
586.6038,-4.757888E-05
586.7038,-4.762032E-05
586.8038,-4.760431E-05
586.9037,-4.756852E-05
587.0037,-4.75544E-05
587.1037,-4.754592E-05
587.2037,-4.755157E-05
587.3036,-4.754122E-05
587.4036,-4.753744E-05
587.5036,-4.750637E-05
587.6036,-4.749601E-05
587.7036,-4.749224E-05
587.8035,-4.74461E-05
587.9035,-4.743386E-05
588.0035,-4.744987E-05
588.1035,-4.744233E-05
588.2034,-4.740466E-05
588.3034,-4.74009E-05
588.4034,-4.737829E-05
588.5034,-4.735946E-05
588.6033,-4.738394E-05
588.7033,-4.735663E-05
588.8033,-4.73265E-05
588.9033,-4.732932E-05
589.0032,-4.734063E-05
589.1032,-4.726529E-05
589.2032,-4.726906E-05
589.3032,-4.729542E-05
589.4031,-4.728318E-05
589.5031,-4.725022E-05
589.6031,-4.726434E-05
589.7031,-4.724739E-05
589.803,-4.723044E-05
589.903,-4.723044E-05
590.003,-4.720502E-05
590.103,-4.718807E-05
590.2029,-4.718618E-05
590.3029,-4.715981E-05
590.4029,-4.714286E-05
590.5029,-4.715605E-05
590.6028,-4.715134E-05
590.7028,-4.712026E-05
590.8028,-4.710425E-05
590.9028,-4.709106E-05
591.0027,-4.708541E-05
591.1027,-4.706658E-05
591.2027,-4.704398E-05
591.3027,-4.70242E-05
591.4026,-4.702985E-05
591.5026,-4.701008E-05
591.6026,-4.698465E-05
591.7026,-4.700537E-05
591.8026,-4.699407E-05
591.9025,-4.696111E-05
592.0025,-4.692815E-05
592.1025,-4.697147E-05
592.2025,-4.69498E-05
592.3024,-4.692626E-05
592.4024,-4.692626E-05
592.5024,-4.692909E-05
592.6024,-4.690272E-05
592.7023,-4.692155E-05
592.8023,-4.687258E-05
592.9023,-4.685752E-05
593.0023,-4.686411E-05
593.1022,-4.685092E-05
593.2022,-4.682079E-05
593.3022,-4.680101E-05
593.4022,-4.679913E-05
593.5021,-4.677841E-05
593.6021,-4.677747E-05
593.7021,-4.676617E-05
593.8021,-4.673227E-05
593.902,-4.674922E-05
594.002,-4.674074E-05
594.102,-4.669554E-05
594.202,-4.6672E-05
594.3019,-4.668706E-05
594.4019,-4.668518E-05
594.5019,-4.666258E-05
594.6019,-4.665881E-05
594.7018,-4.663338E-05
594.8018,-4.663433E-05
594.9018,-4.662397E-05
595.0018,-4.658159E-05
595.1017,-4.663338E-05
595.2017,-4.662962E-05
595.3017,-4.658253E-05
595.4017,-4.658819E-05
595.5016,-4.662302E-05
595.6016,-4.657123E-05
595.7016,-4.653638E-05
595.8016,-4.654392E-05
595.9016,-4.65411E-05
596.0015,-4.651096E-05
596.1015,-4.648741E-05
596.2015,-4.649495E-05
596.3015,-4.6478E-05
596.4014,-4.648083E-05
596.5014,-4.644033E-05
596.6014,-4.642809E-05
596.7014,-4.644127E-05
596.8013,-4.643562E-05
596.9013,-4.637441E-05
597.0013,-4.637064E-05
597.1013,-4.640455E-05
597.2012,-4.635652E-05
597.3012,-4.634333E-05
597.4012,-4.636593E-05
597.5012,-4.636593E-05
597.6011,-4.633768E-05
597.7011,-4.631226E-05
597.8011,-4.631319E-05
597.9011,-4.630001E-05
598.001,-4.630849E-05
598.101,-4.628212E-05
598.201,-4.624068E-05
598.301,-4.624633E-05
598.4009,-4.623032E-05
598.5009,-4.621902E-05
598.6009,-4.622279E-05
598.7009,-4.619831E-05
598.8008,-4.615311E-05
598.9008,-4.616158E-05
599.0008,-4.615122E-05
599.1008,-4.614651E-05
599.2007,-4.611732E-05
599.3007,-4.612014E-05
599.4007,-4.608624E-05
599.5007,-4.609283E-05
599.6006,-4.609095E-05
599.7006,-4.605234E-05
599.8006,-4.603538E-05
599.9006,-4.605045E-05
600.0005,-4.602409E-05
