EXPID. 0651
[电化学]: i-t : @ 0(V) X 600(sec)
起始电位 (V),0
静置时间 (秒),0
运行时间 (秒),600
记录间隔,0.1
电解液 信息:
HNO3,0.4
0.1,-0.01005814
0.2,-0.01005814
0.3,-0.01005814
0.4,-0.01005814
0.5,0.001257909
0.6,0.00613603
0.7,0.00302793
0.8000001,-0.00163948
0.9000001,-0.003845538
1,-0.004282624
1.1,-0.004204247
1.2,-0.004027667
1.3,-0.003848867
1.4,-0.003690377
1.5,-0.003546047
1.6,-0.003421097
1.7,-0.003306716
1.8,-0.003202324
1.9,-0.003105427
2,-0.003016191
2.1,-0.002922234
2.2,-0.002831989
2.3,-0.002748855
2.4,-0.002663455
2.5,-0.002584405
2.6,-0.002512627
2.7,-0.002439416
2.799999,-0.002367798
2.899999,-0.002303287
2.999999,-0.002238144
3.099999,-0.002176509
3.199999,-0.002121309
3.299999,-0.002067821
3.399999,-0.00201619
3.499999,-0.001970938
3.599999,-0.00192628
3.699999,-0.001885478
3.799999,-0.001847417
3.899998,-0.001812336
3.999998,-0.001779043
4.099998,-0.001747525
4.199998,-0.00171827
4.299998,-0.001690526
4.399998,-0.00166521
4.499998,-0.001639967
4.599998,-0.001616784
4.699998,-0.001594528
4.799998,-0.001573515
4.899998,-0.001554521
4.999998,-0.0015349
5.099998,-0.001517251
5.199997,-0.001499829
5.299997,-0.001482771
5.399997,-0.001467464
5.499997,-0.001452087
5.599997,-0.001437123
5.699997,-0.001423124
5.799997,-0.001409763
5.899997,-0.001396607
5.999997,-0.001384162
6.099997,-0.001372893
6.199996,-0.00136041
6.299996,-0.001349779
6.399996,-0.001339031
6.499996,-0.001328259
6.599996,-0.001318439
6.699996,-0.001308128
6.799996,-0.001298593
6.899996,-0.001289562
6.999996,-0.001280476
7.099996,-0.001271837
7.199996,-0.001263344
7.299995,-0.001255067
7.399995,-0.001247148
7.499995,-0.001239787
7.599995,-0.001231954
7.699995,-0.00122484
7.799995,-0.001217461
7.899995,-0.001210577
7.999995,-0.001204392
8.099995,-0.001197553
8.199995,-0.001190664
8.299995,-0.001184621
8.399996,-0.001178175
8.499996,-0.001172044
8.599997,-0.001166205
8.699997,-0.001160336
8.799997,-0.001154449
8.899998,-0.001149002
8.999998,-0.001143622
9.099998,-0.001137973
9.199999,-0.001132888
9.299999,-0.001127855
9.4,-0.001122918
9.5,-0.00111819
9.6,-0.001113247
9.700001,-0.001109041
9.800001,-0.001104311
9.900002,-0.001099553
10,-0.001095197
10.1,-0.00109076
10.2,-0.00108589
10.3,-0.001081628
10.4,-0.001077597
10.5,-0.001073264
10.6,-0.001069578
10.7,-0.001066042
10.8,-0.001061892
10.90001,-0.001057938
11.00001,-0.001054219
11.10001,-0.001050396
11.20001,-0.001046763
11.30001,-0.001043318
11.40001,-0.001039615
11.50001,-0.001036048
11.60001,-0.001032664
11.70001,-0.001029301
11.80001,-0.001025908
11.90001,-0.001022494
12.00001,-0.001019093
12.10001,-0.001015849
12.20001,-0.001012439
12.30001,-0.00100933
12.40001,-0.001006168
12.50001,-0.001002862
12.60001,-0.000999757
12.70001,-0.0009969063
12.80001,-0.0009936902
12.90001,-0.0009906946
13.00001,-0.0009880408
13.10001,-0.0009849613
13.20001,-0.00098201
13.30001,-0.0009793495
13.40001,-0.0009766007
13.50002,-0.0009738282
13.60002,-0.0009713873
13.70002,-0.0009687617
13.80002,-0.0009658018
13.90002,-0.0009634578
14.00002,-0.0009608135
14.10002,-0.0009582011
14.20002,-0.0009557027
14.30002,-0.000953128
14.40002,-0.0009507652
14.50002,-0.0009482499
14.60002,-0.0009458154
14.70002,-0.0009435393
14.80002,-0.0009410899
14.90002,-0.0009388429
15.00002,-0.0009365761
15.10002,-0.0009341794
15.20002,-0.0009322225
15.30002,-0.0009302524
15.40002,-0.0009277465
15.50002,-0.0009257707
15.60002,-0.0009236405
15.70002,-0.000921305
15.80002,-0.0009192454
15.90002,-0.0009172254
16.00002,-0.0009148908
16.10003,-0.000913079
16.20003,-0.0009109978
16.30003,-0.0009088459
16.40003,-0.0009069691
16.50003,-0.0009050366
16.60003,-0.0009029187
16.70003,-0.0009011943
16.80003,-0.0008992158
16.90003,-0.0008971383
17.00003,-0.0008953085
17.10003,-0.0008934891
17.20003,-0.0008915096
17.30003,-0.0008896845
17.40003,-0.0008879395
17.50003,-0.0008859816
17.60003,-0.0008842224
17.70003,-0.0008824558
17.80003,-0.0008805714
17.90003,-0.0008789063
18.00003,-0.0008771528
18.10003,-0.0008753428
18.20003,-0.0008737042
18.30003,-0.0008719828
18.40003,-0.0008701426
18.50003,-0.0008685539
18.60003,-0.0008668852
18.70004,-0.0008652089
18.80004,-0.0008635995
18.90004,-0.0008619372
19.00004,-0.0008602356
19.10004,-0.0008587599
19.20004,-0.0008571628
19.30004,-0.0008555062
19.40004,-0.0008540955
19.50004,-0.0008525416
19.60004,-0.0008509379
19.70004,-0.000849401
19.80004,-0.0008479093
19.90004,-0.00084633
20.00004,-0.0008449353
20.10004,-0.0008433739
20.20004,-0.0008419161
20.30004,-0.0008404893
20.40004,-0.0008389779
20.50004,-0.0008375371
20.60004,-0.0008361
20.70004,-0.0008346563
20.80004,-0.0008332088
20.90004,-0.000831817
21.00004,-0.0008303281
21.10004,-0.0008289522
21.20004,-0.0008276197
21.30005,-0.0008261374
21.40005,-0.0008248915
21.50005,-0.0008236776
21.60005,-0.0008222518
21.70005,-0.0008208383
21.80005,-0.000819647
21.90005,-0.0008182118
22.00005,-0.0008168623
22.10005,-0.0008155985
22.20005,-0.0008143102
22.30005,-0.0008129192
22.40005,-0.000811743
22.50005,-0.0008105329
22.60005,-0.0008091712
22.70005,-0.0008079978
22.80005,-0.0008067415
22.90005,-0.0008054457
23.00005,-0.0008042666
23.10005,-0.0008030697
23.20005,-0.0008020159
23.30005,-0.0008007624
23.40005,-0.0007997802
23.50005,-0.0007985654
23.60005,-0.0007971923
23.70005,-0.0007961376
23.80005,-0.0007949445
23.90005,-0.000793594
24.00006,-0.0007923744
24.10006,-0.0007912453
24.20006,-0.0007899739
24.30006,-0.0007888241
24.40006,-0.0007877006
24.50006,-0.0007865094
24.60006,-0.0007853812
24.70006,-0.0007843895
24.80006,-0.0007831313
24.90006,-0.0007819899
25.00006,-0.0007809588
25.10006,-0.0007797816
25.20006,-0.0007786676
25.30006,-0.0007776118
25.40006,-0.0007764064
25.50006,-0.0007754365
25.60006,-0.0007744307
25.70006,-0.0007732902
25.80006,-0.0007722779
25.90006,-0.0007712354
26.00006,-0.0007701195
26.10006,-0.0007691061
26.20006,-0.000768074
26.30006,-0.0007669562
26.40006,-0.0007659806
26.50006,-0.0007649296
26.60007,-0.0007638447
26.70007,-0.0007628615
26.80007,-0.0007618341
26.90007,-0.0007607699
27.00007,-0.0007598216
27.10007,-0.0007587443
27.20007,-0.0007576754
27.30007,-0.0007567346
27.40007,-0.0007557806
27.50007,-0.0007547834
27.60007,-0.0007539386
27.70007,-0.0007529932
27.80007,-0.0007519186
27.90007,-0.0007510466
28.00007,-0.0007500719
28.10007,-0.0007490398
28.20007,-0.0007481206
28.30007,-0.0007471233
28.40007,-0.0007461816
28.50007,-0.0007453077
28.60007,-0.0007445806
28.70007,-0.0007436135
28.80007,-0.0007426811
28.90007,-0.0007419108
29.00007,-0.0007409484
29.10007,-0.0007398833
29.20008,-0.0007389877
29.30008,-0.0007380752
29.40008,-0.0007371146
29.50008,-0.0007361738
29.60008,-0.0007352575
29.70008,-0.0007342329
29.80008,-0.0007332817
29.90008,-0.0007324229
30.00008,-0.0007314039
30.10008,-0.0007305657
30.20008,-0.0007296778
30.30008,-0.0007287125
30.40008,-0.0007278413
30.50008,-0.000727023
30.60008,-0.0007260709
30.70008,-0.0007251819
30.80008,-0.0007243796
30.90008,-0.0007234633
31.00008,-0.000722579
31.10008,-0.0007217145
31.20008,-0.0007207878
31.30008,-0.0007199572
31.40008,-0.0007190719
31.50008,-0.0007181886
31.60008,-0.0007172987
31.70008,-0.0007163956
31.80009,-0.0007155509
31.90009,-0.0007147362
32.00008,-0.0007138359
32.10008,-0.0007129799
32.20008,-0.0007122218
32.30008,-0.0007112735
32.40008,-0.000710426
32.50008,-0.0007096631
32.60007,-0.0007088147
32.70007,-0.0007080009
32.80007,-0.0007072504
32.90007,-0.0007065818
33.00007,-0.0007057795
33.10007,-0.0007049234
33.20007,-0.0007041144
33.30006,-0.0007032725
33.40006,-0.0007025164
33.50006,-0.0007017516
33.60006,-0.0007008712
33.70006,-0.0007001865
33.80006,-0.0006994547
33.90005,-0.0006986223
34.00005,-0.0006977936
34.10005,-0.0006969978
34.20005,-0.000696202
34.30005,-0.0006954091
34.40005,-0.0006945925
34.50005,-0.0006937808
34.60004,-0.0006930171
34.70004,-0.0006922279
34.80004,-0.0006914246
34.90004,-0.0006906665
35.00004,-0.0006898576
35.10004,-0.0006891428
35.20004,-0.0006883423
35.30003,-0.0006875729
35.40003,-0.0006868186
35.50003,-0.000686036
35.60003,-0.0006852921
35.70003,-0.000684534
35.80003,-0.0006837806
35.90002,-0.0006830479
36.00002,-0.0006822643
36.10002,-0.0006815034
36.20002,-0.0006808132
36.30002,-0.0006800476
36.40002,-0.0006793045
36.50002,-0.0006785652
36.60001,-0.0006778429
36.70001,-0.0006770773
36.80001,-0.0006763531
36.90001,-0.0006756223
37.00001,-0.0006748944
37.10001,-0.0006741871
37.2,-0.0006734921
37.3,-0.0006727529
37.4,-0.0006719562
37.5,-0.0006712829
37.6,-0.0006705191
37.7,-0.0006698241
37.8,-0.0006690839
37.89999,-0.000668354
37.99999,-0.000667709
38.09999,-0.0006670752
38.19999,-0.0006662719
38.29999,-0.000665607
38.39999,-0.0006648932
38.49998,-0.0006641276
38.59998,-0.0006634373
38.69998,-0.0006627479
38.79998,-0.0006620284
38.89998,-0.0006613797
38.99998,-0.0006606903
39.09998,-0.0006599171
39.19997,-0.0006592692
39.29997,-0.0006586325
39.39997,-0.0006578915
39.49997,-0.0006572247
39.59997,-0.0006566257
39.69997,-0.0006559091
39.79996,-0.0006552809
39.89996,-0.0006546604
39.99996,-0.000653939
40.09996,-0.000653357
40.19996,-0.0006526874
40.29996,-0.0006519435
40.39996,-0.0006512899
40.49995,-0.0006506901
40.59995,-0.0006499969
40.69995,-0.0006494225
40.79995,-0.0006487839
40.89995,-0.0006480522
40.99995,-0.0006474043
41.09995,-0.0006467319
41.19994,-0.0006460906
41.29994,-0.0006454248
41.39994,-0.0006447929
41.49994,-0.0006441186
41.59994,-0.0006434406
41.69994,-0.0006428567
41.79993,-0.0006421927
41.89993,-0.0006414799
41.99993,-0.0006408678
42.09993,-0.000640282
42.19993,-0.000639668
42.29993,-0.0006389683
42.39993,-0.0006382752
42.49992,-0.0006376206
42.59992,-0.0006369935
42.69992,-0.0006363051
42.79992,-0.0006356383
42.89992,-0.0006350422
42.99992,-0.0006344349
43.09991,-0.0006338048
43.19991,-0.000633284
43.29991,-0.0006326295
43.39991,-0.0006319486
43.49991,-0.0006313939
43.59991,-0.0006308148
43.69991,-0.00063018
43.7999,-0.0006296809
43.8999,-0.0006290396
43.9999,-0.000628322
44.0999,-0.0006277796
44.1999,-0.0006271863
44.2999,-0.0006265318
44.39989,-0.0006259281
44.49989,-0.0006253395
44.59989,-0.0006247171
44.69989,-0.0006241577
44.79989,-0.0006235597
44.89989,-0.0006228769
44.99989,-0.0006223147
45.09988,-0.0006216875
45.19988,-0.000621033
45.29988,-0.0006204313
45.39988,-0.0006198455
45.49988,-0.0006192268
45.59988,-0.0006187126
45.69987,-0.0006181381
45.79987,-0.0006175025
45.89987,-0.0006168997
45.99987,-0.0006162641
46.09987,-0.000615748
46.19987,-0.0006152461
46.29987,-0.0006147216
46.39986,-0.0006140567
46.49986,-0.0006134031
46.59986,-0.0006128192
46.69986,-0.0006122212
46.79986,-0.0006116138
46.89986,-0.0006110168
46.99986,-0.0006105035
47.09985,-0.0006098735
47.19985,-0.000609283
47.29985,-0.000608702
47.39985,-0.0006081219
47.49985,-0.000607507
47.59985,-0.0006069014
47.69984,-0.0006063504
47.79984,-0.0006057958
47.89984,-0.0006052204
47.99984,-0.0006046422
48.09984,-0.000604063
48.19984,-0.0006034791
48.29984,-0.000602884
48.39983,-0.000602335
48.49983,-0.0006017623
48.59983,-0.0006011521
48.69983,-0.0006006087
48.79983,-0.0006000663
48.89983,-0.0005995107
48.99982,-0.0005989522
49.09982,-0.0005983957
49.19982,-0.0005978787
49.29982,-0.000597323
49.39982,-0.0005967495
49.49982,-0.0005962062
49.59982,-0.0005956797
49.69981,-0.0005950855
49.79981,-0.0005945487
49.89981,-0.0005941231
49.99981,-0.0005935335
50.09981,-0.0005928884
50.19981,-0.0005923545
50.2998,-0.000591813
50.3998,-0.0005912386
50.4998,-0.0005907545
50.5998,-0.0005902214
50.6998,-0.0005896112
50.7998,-0.0005890744
50.8998,-0.0005886036
50.99979,-0.0005881355
51.09979,-0.0005875366
51.19979,-0.0005869339
51.29979,-0.0005863433
51.39979,-0.0005858688
51.49979,-0.0005853631
51.59978,-0.0005847603
51.69978,-0.0005842584
51.79978,-0.0005837216
51.89978,-0.00058315
51.99978,-0.0005826471
52.09978,-0.0005821066
52.19978,-0.0005815745
52.29977,-0.0005810274
52.39977,-0.0005805075
52.49977,-0.0005799679
52.59977,-0.0005794669
52.69977,-0.0005789621
52.79977,-0.0005784055
52.89977,-0.0005778688
52.99976,-0.0005773781
53.09976,-0.0005769487
53.19976,-0.0005764599
53.29976,-0.0005759043
53.39976,-0.0005753374
53.49976,-0.0005747987
53.59975,-0.000574308
53.69975,-0.0005737402
53.79975,-0.0005731996
53.89975,-0.0005727175
53.99975,-0.0005722155
54.09975,-0.0005717635
54.19975,-0.0005713087
54.29974,-0.000570834
54.39974,-0.0005702728
54.49974,-0.0005697642
54.59974,-0.000569267
54.69974,-0.0005687311
54.79974,-0.0005682254
54.89973,-0.0005677206
54.99973,-0.0005671745
55.09973,-0.000566648
55.19973,-0.0005661414
55.29973,-0.000565647
55.39973,-0.000565114
55.49973,-0.0005646158
55.59972,-0.0005641053
55.69972,-0.0005635836
55.79972,-0.0005631137
55.89972,-0.0005625571
55.99972,-0.0005621598
56.09972,-0.0005616182
56.19971,-0.0005610409
56.29971,-0.0005605616
56.39971,-0.0005601604
56.49971,-0.0005597009
56.59971,-0.0005591396
56.69971,-0.0005586179
56.79971,-0.0005581649
56.8997,-0.0005577299
56.9997,-0.0005571969
57.0997,-0.0005566337
57.1997,-0.000556143
57.2997,-0.0005556552
57.3997,-0.0005551777
57.49969,-0.0005546918
57.59969,-0.0005542049
57.69969,-0.0005536927
57.79969,-0.0005531888
57.89969,-0.0005527188
57.99969,-0.0005522235
58.09969,-0.0005517903
58.19968,-0.0005512696
58.29968,-0.0005507431
58.39968,-0.0005502732
58.49968,-0.0005497807
58.59968,-0.0005492609
58.69968,-0.0005487919
58.79967,-0.0005482786
58.89967,-0.0005477691
58.99967,-0.0005473077
59.09967,-0.0005468284
59.19967,-0.0005463368
59.29967,-0.0005458725
59.39967,-0.0005453753
59.49966,-0.0005448827
59.59966,-0.0005444345
59.69966,-0.0005439466
59.79966,-0.0005434711
59.89966,-0.0005429899
59.99966,-0.0005425105
60.09966,-0.0005420114
60.19965,-0.0005415773
60.29965,-0.0005411073
60.39965,-0.0005406609
60.49965,-0.0005401919
60.59965,-0.0005397088
60.69965,-0.0005392625
60.79964,-0.0005387662
60.89964,-0.0005383386
60.99964,-0.0005378414
61.09964,-0.0005373583
61.19964,-0.0005369223
61.29964,-0.0005364542
61.39964,-0.0005359843
61.49963,-0.0005355643
61.59963,-0.0005350341
61.69963,-0.0005345463
61.79963,-0.0005341489
61.89963,-0.000533647
61.99963,-0.000533145
62.09962,-0.0005327147
62.19962,-0.0005322569
62.29962,-0.000531771
62.39962,-0.0005313303
62.49962,-0.0005308886
62.59962,-0.0005303866
62.69962,-0.0005299441
62.79961,-0.0005294826
62.89961,-0.0005289929
62.99961,-0.000528572
63.09961,-0.0005281369
63.19961,-0.0005276924
63.29961,-0.0005272356
63.3996,-0.0005267506
63.4996,-0.0005262798
63.5996,-0.0005258852
63.6996,-0.0005254115
63.7996,-0.0005249388
63.8996,-0.0005245055
63.9996,-0.0005240771
64.09959,-0.0005235911
64.19959,-0.0005231645
64.29959,-0.0005227135
64.39959,-0.0005222605
64.49959,-0.0005218367
64.59959,-0.0005213451
64.69958,-0.0005208723
64.79958,-0.0005204561
64.89958,-0.0005200022
64.99958,-0.0005195624
65.09958,-0.0005191405
65.19958,-0.0005186405
65.29958,-0.0005181978
65.39957,-0.0005178362
65.49957,-0.000517403
65.59957,-0.0005168756
65.69957,-0.0005164434
65.79957,-0.0005160234
65.89957,-0.0005156005
65.99957,-0.0005151739
66.09956,-0.0005147369
66.19956,-0.000514348
66.29956,-0.0005139045
66.39956,-0.0005134506
66.49956,-0.0005129882
66.59956,-0.0005125898
66.69955,-0.0005121368
66.79955,-0.0005116971
66.89955,-0.0005112978
66.99955,-0.0005108665
67.09955,-0.0005104051
67.19955,-0.0005099991
67.29955,-0.0005095574
67.39954,-0.000509127
67.49954,-0.0005087014
67.59954,-0.0005082748
67.69954,-0.0005078595
67.79954,-0.0005074319
67.89954,-0.0005070167
67.99953,-0.0005065759
68.09953,-0.0005061305
68.19953,-0.0005057227
68.29953,-0.0005053281
68.39953,-0.000504894
68.49953,-0.0005045023
68.59953,-0.000504084
68.69952,-0.0005036151
68.79952,-0.0005032073
68.89952,-0.0005028034
68.99952,-0.0005023523
69.09952,-0.00050192
69.19952,-0.0005015188
69.29951,-0.0005010932
69.39951,-0.0005007212
69.49951,-0.0005002955
69.59951,-0.0004998652
69.69951,-0.000499448
69.79951,-0.000499027
69.89951,-0.0004985957
69.9995,-0.0004982105
70.0995,-0.0004977736
70.1995,-0.0004973451
70.2995,-0.0004969495
70.3995,-0.0004965183
70.4995,-0.0004961001
70.59949,-0.0004957366
70.69949,-0.0004952996
70.79949,-0.0004948448
70.89949,-0.0004944672
70.99949,-0.0004940613
71.09949,-0.0004936149
71.19949,-0.0004932081
71.29948,-0.0004928323
71.39948,-0.0004924236
71.49948,-0.0004920723
71.59948,-0.0004916118
71.69948,-0.0004911654
71.79948,-0.0004908001
71.89948,-0.0004904224
71.99947,-0.000489994
72.09947,-0.0004895758
72.19947,-0.0004891699
72.29947,-0.0004887489
72.39947,-0.0004883581
72.49947,-0.0004879682
72.59946,-0.0004875379
72.69946,-0.0004871508
72.79946,-0.0004867647
72.89946,-0.0004863438
72.99946,-0.0004859737
73.09946,-0.0004855593
73.19946,-0.0004851393
73.29945,-0.0004847381
73.39945,-0.0004843294
73.49945,-0.0004839207
73.59945,-0.0004835553
73.69945,-0.0004831042
73.79945,-0.0004827275
73.89944,-0.0004823367
73.99944,-0.0004819515
74.09944,-0.0004815164
74.19944,-0.0004810974
74.29944,-0.0004806783
74.39944,-0.0004802847
74.49944,-0.0004798929
74.59943,-0.00047952
74.69943,-0.0004791263
74.79943,-0.0004787534
74.89943,-0.0004783315
74.99943,-0.0004779068
75.09943,-0.0004775423
75.19942,-0.0004771468
75.29942,-0.0004767579
75.39942,-0.0004763915
75.49942,-0.0004759942
75.59942,-0.0004755854
75.69942,-0.0004751946
75.79942,-0.0004747981
75.89941,-0.0004743988
75.99941,-0.0004740673
76.09941,-0.0004737133
76.19941,-0.0004733262
76.29941,-0.0004729043
76.39941,-0.000472521
76.4994,-0.0004721415
76.5994,-0.0004717309
76.6994,-0.0004713693
76.7994,-0.0004709653
76.8994,-0.0004705952
76.9994,-0.000470243
77.0994,-0.0004698042
77.19939,-0.0004694444
77.29939,-0.0004691628
77.39939,-0.0004687503
77.49939,-0.0004683463
77.59939,-0.0004679885
77.69939,-0.0004676222
77.79939,-0.0004672276
77.89938,-0.0004668132
77.99938,-0.0004664459
78.09938,-0.0004660617
78.19938,-0.0004657161
78.29938,-0.0004653516
78.39938,-0.0004649523
78.49937,-0.0004645766
78.59937,-0.0004642009
78.69937,-0.0004638128
78.79937,-0.0004634427
78.89937,-0.0004630774
78.99937,-0.0004627101
79.09937,-0.0004623353
79.19936,-0.0004619765
79.29936,-0.0004616177
79.39936,-0.0004612448
79.49936,-0.000460885
79.59936,-0.0004604895
79.69936,-0.0004601655
79.79935,-0.0004597973
79.89935,-0.0004594121
79.99935,-0.0004590185
80.09935,-0.0004586267
80.19935,-0.0004582877
80.29935,-0.0004579458
80.39935,-0.0004575626
80.49934,-0.0004571878
80.59934,-0.0004568487
80.69934,-0.0004564824
80.79934,-0.000456101
80.89934,-0.0004557055
80.99934,-0.0004553664
81.09933,-0.0004550152
81.19933,-0.00045463
81.29933,-0.0004542421
81.39933,-0.0004538908
81.49933,-0.0004535423
81.59933,-0.0004531741
81.69933,-0.0004528229
81.79932,-0.0004524688
81.89932,-0.000452109
81.99932,-0.0004517219
82.09932,-0.0004514074
82.19932,-0.0004510694
82.29932,-0.0004507312
82.39931,-0.0004503602
82.49931,-0.0004499562
82.59931,-0.0004495993
82.69931,-0.000449248
82.79931,-0.0004489109
82.89931,-0.0004485408
82.99931,-0.0004481698
83.0993,-0.0004477912
83.1993,-0.0004474522
83.2993,-0.0004471442
83.3993,-0.000446824
83.4993,-0.000446403
83.5993,-0.0004460546
83.6993,-0.0004457391
83.79929,-0.0004453907
83.89929,-0.0004449726
83.99929,-0.000444626
84.09929,-0.00044427
84.19929,-0.0004439385
84.29929,-0.0004435929
84.39928,-0.0004432294
84.49928,-0.0004428706
84.59928,-0.0004425316
84.69928,-0.0004422114
84.79928,-0.000441927
84.89928,-0.0004416285
84.99928,-0.0004412988
85.09927,-0.0004409288
85.19927,-0.0004405945
85.29927,-0.0004402582
85.39927,-0.0004398872
85.49927,-0.0004395416
85.59927,-0.0004392101
85.69926,-0.0004388344
85.79926,-0.0004385095
85.89926,-0.0004381752
85.99926,-0.0004378173
86.09926,-0.0004374914
86.19926,-0.0004371223
86.29926,-0.0004367692
86.39925,-0.0004364575
86.49925,-0.0004361231
86.59925,-0.0004357427
86.69925,-0.0004353989
86.79925,-0.0004350354
86.89925,-0.0004346898
86.99924,-0.0004343771
87.09924,-0.0004340372
87.19924,-0.0004336906
87.29924,-0.0004333865
87.39924,-0.0004330286
87.49924,-0.0004327075
87.59924,-0.0004323402
87.69923,-0.0004319927
87.79923,-0.0004317366
87.89923,-0.0004314427
87.99923,-0.0004311112
88.09923,-0.0004307326
88.19923,-0.0004303579
88.29922,-0.0004300527
88.39922,-0.0004297288
88.49922,-0.000429353
88.59922,-0.0004290008
88.69922,-0.0004286514
88.79922,-0.0004283632
88.89922,-0.0004280111
88.99921,-0.0004276927
89.09921,-0.000427348
89.19921,-0.0004270401
89.29921,-0.000426702
89.39921,-0.0004263357
89.49921,-0.0004260174
89.59921,-0.0004257198
89.6992,-0.0004253045
89.7992,-0.0004250145
89.8992,-0.0004246933
89.9992,-0.0004243402
90.0992,-0.0004240511
90.1992,-0.0004237281
90.29919,-0.0004233787
90.39919,-0.0004230651
90.49919,-0.0004227656
90.59919,-0.0004224313
90.69919,-0.0004221309
90.79919,-0.0004217862
90.89919,-0.00042145
90.99918,-0.0004211496
91.09918,-0.0004208238
91.19918,-0.0004204753
91.29918,-0.000420157
91.39918,-0.0004198283
91.49918,-0.0004195241
91.59917,-0.0004191851
91.69917,-0.0004188518
91.79917,-0.0004185193
91.89917,-0.000418201
91.99917,-0.0004179167
92.09917,-0.0004176049
92.19917,-0.0004172857
92.29916,-0.000416958
92.39916,-0.0004166265
92.49916,-0.0004162978
92.59916,-0.0004159785
92.69916,-0.0004156273
92.79916,-0.0004152863
92.89915,-0.0004149973
92.99915,-0.0004146761
93.09915,-0.0004143823
93.19915,-0.0004140424
93.29915,-0.0004137193
93.39915,-0.0004134189
93.49915,-0.0004130997
93.59914,-0.0004127437
93.69914,-0.0004124518
93.79914,-0.0004121071
93.89914,-0.0004118133
93.99914,-0.0004114978
94.09914,-0.0004111974
94.19913,-0.0004108574
94.29913,-0.0004105438
94.39913,-0.0004102198
94.49913,-0.000409911
94.59913,-0.0004096284
94.69913,-0.0004093309
94.79913,-0.0004089862
94.89912,-0.0004086462
94.99912,-0.0004083402
95.09912,-0.0004080605
95.19912,-0.0004077337
95.29912,-0.0004074041
95.39912,-0.0004071065
95.49911,-0.0004068315
95.59911,-0.0004065113
95.69911,-0.0004062006
95.79911,-0.0004058681
95.89911,-0.0004055602
95.99911,-0.0004052183
96.09911,-0.0004049245
96.1991,-0.0004046373
96.2991,-0.0004043039
96.3991,-0.0004039574
96.4991,-0.0004036946
96.5991,-0.0004033753
96.6991,-0.0004030307
96.7991,-0.0004026982
96.89909,-0.0004023865
96.99909,-0.0004020588
97.09909,-0.0004017697
97.19909,-0.0004014844
97.29909,-0.0004011745
97.39909,-0.0004008581
97.49908,-0.0004005341
97.59908,-0.0004002347
97.69908,-0.000399971
97.79908,-0.0003996113
97.89908,-0.0003993268
97.99908,-0.0003991649
98.09908,-0.0003988249
98.19907,-0.0003984887
98.29907,-0.0003981629
98.39907,-0.000397837
98.49907,-0.000397547
98.59907,-0.0003972475
98.69907,-0.0003969433
98.79906,-0.0003966109
98.89906,-0.0003963416
98.99906,-0.0003960553
99.09906,-0.0003957219
99.19906,-0.0003954846
99.29906,-0.0003951776
99.39906,-0.0003948875
99.49905,-0.0003946182
99.59905,-0.0003942839
99.69905,-0.0003939957
99.79905,-0.0003937198
99.89905,-0.0003934335
99.99905,-0.0003931189
100.099,-0.0003928148
100.199,-0.0003925003
100.299,-0.0003922205
100.399,-0.0003919418
100.499,-0.0003916395
100.599,-0.0003913334
100.699,-0.0003910453
100.799,-0.0003907863
100.899,-0.0003904812
100.999,-0.0003901845
101.099,-0.0003898813
101.199,-0.0003895592
101.299,-0.0003892861
101.399,-0.0003890318
101.499,-0.0003887192
101.599,-0.0003883642
101.699,-0.0003881136
101.799,-0.0003878161
101.899,-0.0003875232
101.999,-0.0003872341
102.099,-0.0003869111
102.199,-0.0003866389
102.299,-0.0003863498
102.399,-0.0003860673
102.499,-0.0003857829
102.599,-0.0003854947
102.699,-0.0003852442
102.799,-0.0003849287
102.899,-0.00038465
102.999,-0.000384391
103.099,-0.0003840972
103.199,-0.0003838194
103.299,-0.0003835133
103.399,-0.0003832308
103.499,-0.0003829643
103.599,-0.0003826864
103.699,-0.0003824002
103.799,-0.0003821167
103.899,-0.0003818427
103.999,-0.0003815526
104.099,-0.0003812833
104.199,-0.0003809687
104.299,-0.0003806514
104.399,-0.0003804046
104.499,-0.0003801259
104.599,-0.0003798217
104.699,-0.0003795891
104.799,-0.0003793047
104.899,-0.0003790514
104.999,-0.0003787735
105.099,-0.0003784317
105.199,-0.0003781172
105.299,-0.0003778591
105.399,-0.0003775917
105.499,-0.0003772894
105.599,-0.0003770267
105.699,-0.0003767441
105.799,-0.0003764541
105.899,-0.0003762271
105.999,-0.0003760708
106.099,-0.0003757431
106.199,-0.0003754389
106.299,-0.0003751394
106.3989,-0.0003748579
106.4989,-0.0003745706
106.5989,-0.0003742702
106.6989,-0.0003739688
106.7989,-0.0003736901
106.8989,-0.0003734048
106.9989,-0.0003731269
107.0989,-0.0003728435
107.1989,-0.0003725713
107.2989,-0.0003722926
107.3989,-0.0003720373
107.4989,-0.0003717586
107.5989,-0.0003715062
107.6989,-0.0003712585
107.7989,-0.000370976
107.8989,-0.0003706671
107.9989,-0.0003704364
108.0989,-0.0003701887
108.1989,-0.0003698855
108.2989,-0.0003695936
108.3989,-0.0003693298
108.4989,-0.0003690812
108.5989,-0.0003688317
108.6989,-0.0003685793
108.7989,-0.0003682572
108.8989,-0.0003679521
108.9989,-0.0003677139
109.0989,-0.0003674718
109.1989,-0.0003671677
109.2989,-0.0003668814
109.3989,-0.0003666196
109.4989,-0.0003663097
109.5989,-0.0003660451
109.6989,-0.0003657805
109.7989,-0.0003655102
109.8989,-0.0003652428
109.9989,-0.0003649857
110.0989,-0.0003647154
110.1989,-0.0003644752
110.2989,-0.0003642012
110.3989,-0.0003639093
110.4989,-0.0003636465
110.5989,-0.0003633876
110.6989,-0.000363073
110.7989,-0.0003628668
110.8989,-0.0003625805
110.9989,-0.0003623196
111.0989,-0.000362039
111.1989,-0.0003617697
111.2989,-0.0003615173
111.3989,-0.0003612979
111.4989,-0.0003609993
111.5989,-0.0003607234
111.6989,-0.0003604795
111.7989,-0.000360229
111.8989,-0.0003599559
111.9989,-0.000359711
112.0989,-0.0003594247
112.1989,-0.0003591469
112.2989,-0.0003589153
112.3989,-0.0003586572
112.4989,-0.000358387
112.5989,-0.0003581487
112.6989,-0.0003578859
112.7989,-0.0003575922
112.8988,-0.000357352
112.9988,-0.0003571128
113.0988,-0.0003568275
113.1988,-0.000356592
113.2988,-0.0003563133
113.3988,-0.0003561004
113.4988,-0.000355866
113.5988,-0.0003555881
113.6988,-0.0003552915
113.7988,-0.0003550485
113.8988,-0.0003548018
113.9988,-0.0003545249
114.0988,-0.0003542612
114.1988,-0.000353974
114.2988,-0.0003537018
114.3988,-0.0003534852
114.4988,-0.0003532235
114.5988,-0.0003529607
114.6988,-0.0003526961
114.7988,-0.0003524333
114.8988,-0.0003521875
114.9988,-0.0003519276
115.0988,-0.0003516658
115.1988,-0.0003513871
115.2988,-0.0003511648
115.3988,-0.0003509125
115.4988,-0.0003506968
115.5988,-0.000350435
115.6988,-0.0003501628
115.7988,-0.0003499104
115.8988,-0.0003496853
115.9988,-0.0003494471
116.0988,-0.0003491844
116.1988,-0.0003488679
116.2988,-0.0003486212
116.3988,-0.000348382
116.4988,-0.0003480976
116.5988,-0.0003478641
116.6988,-0.0003476022
116.7988,-0.0003473244
116.8988,-0.0003470787
116.9988,-0.0003468263
117.0988,-0.0003465598
117.1988,-0.0003462998
117.2988,-0.0003460625
117.3988,-0.0003458186
117.4988,-0.0003455615
117.5988,-0.0003453129
117.6988,-0.0003450275
117.7988,-0.0003448298
117.8988,-0.0003445812
117.9988,-0.0003443231
118.0988,-0.0003440708
118.1988,-0.0003438315
118.2988,-0.0003435905
118.3988,-0.0003433635
118.4988,-0.0003431121
118.5988,-0.0003428757
118.6988,-0.0003426601
118.7988,-0.0003423973
118.8988,-0.0003421431
118.9988,-0.00034195
119.0988,-0.0003417202
119.1988,-0.0003414367
119.2988,-0.0003411994
119.3988,-0.0003409555
119.4987,-0.0003406626
119.5987,-0.0003404197
119.6987,-0.0003401842
119.7987,-0.0003399196
119.8987,-0.0003396955
119.9987,-0.000339412
120.0987,-0.0003391756
120.1987,-0.0003389845
120.2987,-0.0003387132
120.3987,-0.0003384552
120.4987,-0.0003382358
120.5987,-0.0003379731
120.6987,-0.0003377395
120.7987,-0.0003375333
120.8987,-0.0003372818
120.9987,-0.000337021
121.0987,-0.0003367808
121.1987,-0.0003365463
121.2987,-0.0003363006
121.3987,-0.0003361112
121.4987,-0.0003358664
121.5987,-0.0003356121
121.6987,-0.0003353569
121.7987,-0.0003351092
121.8987,-0.0003348456
121.9987,-0.0003346224
122.0987,-0.0003344312
122.1987,-0.0003341722
122.2987,-0.0003339528
122.3987,-0.0003337136
122.4987,-0.0003335139
122.5987,-0.0003332926
122.6987,-0.0003330422
122.7987,-0.0003327625
122.8987,-0.0003325242
122.9987,-0.0003322728
123.0987,-0.0003320288
123.1987,-0.0003317859
123.2987,-0.0003315636
123.3987,-0.000331347
123.4987,-0.0003311116
123.5987,-0.0003308668
123.6987,-0.0003306341
123.7987,-0.000330426
123.8987,-0.0003301868
123.9987,-0.0003299269
124.0987,-0.0003296858
124.1987,-0.0003294541
124.2987,-0.0003291914
124.3987,-0.0003290106
124.4987,-0.0003287366
124.5987,-0.0003284814
124.6987,-0.0003282949
124.7987,-0.0003280547
124.8987,-0.0003277939
124.9987,-0.0003275481
125.0987,-0.0003273023
125.1987,-0.0003270688
125.2987,-0.0003268474
125.3987,-0.0003266289
125.4987,-0.0003263784
125.5987,-0.0003261713
125.6987,-0.0003259424
125.7987,-0.0003257136
125.8987,-0.0003254753
125.9986,-0.0003252851
126.0986,-0.0003250318
126.1986,-0.0003248434
126.2986,-0.0003246259
126.3986,-0.0003243292
126.4986,-0.0003241287
126.5986,-0.0003238838
126.6986,-0.000323638
126.7986,-0.000323363
126.8986,-0.0003231172
126.9986,-0.0003228686
127.0986,-0.0003226793
127.1986,-0.0003224486
127.2986,-0.0003222395
127.3986,-0.0003219796
127.4986,-0.0003217508
127.5986,-0.0003215304
127.6986,-0.0003212959
127.7986,-0.0003210689
127.8986,-0.000320809
127.9986,-0.0003206
128.0986,-0.0003204032
128.1986,-0.0003201489
128.2986,-0.0003199088
128.3986,-0.0003196987
128.4986,-0.0003194652
128.5986,-0.0003192675
128.6987,-0.0003190603
128.7987,-0.0003188182
128.8987,-0.0003185847
128.9987,-0.000318401
129.0987,-0.0003181525
129.1987,-0.0003179311
129.2987,-0.0003177098
129.3987,-0.0003175469
129.4987,-0.0003172926
129.5987,-0.0003170817
129.6987,-0.0003168039
129.7987,-0.0003165487
129.8987,-0.0003163415
129.9987,-0.0003161098
130.0987,-0.0003158791
130.1987,-0.0003156719
130.2988,-0.0003154412
130.3988,-0.0003152104
130.4988,-0.0003150466
130.5988,-0.0003148206
130.6988,-0.0003145644
130.7988,-0.0003143488
130.8988,-0.0003141228
130.9988,-0.0003138836
131.0988,-0.0003137103
131.1988,-0.0003134466
131.2988,-0.0003132215
131.3988,-0.0003130247
131.4988,-0.0003127893
131.5988,-0.0003125943
131.6988,-0.0003124145
131.7988,-0.0003121536
131.8988,-0.0003119135
131.9989,-0.0003117242
132.0989,-0.0003115
132.1989,-0.0003112844
132.2989,-0.0003110876
132.3989,-0.0003108437
132.4989,-0.000310596
132.5989,-0.0003103944
132.6989,-0.000310191
132.7989,-0.0003099612
132.8989,-0.0003097419
132.9989,-0.0003095478
133.0989,-0.0003093067
133.1989,-0.0003091391
133.2989,-0.0003089386
133.3989,-0.0003086975
133.4989,-0.0003084865
133.599,-0.0003082699
133.699,-0.0003080721
133.799,-0.0003078546
133.899,-0.000307638
133.999,-0.0003073931
134.099,-0.0003071831
134.199,-0.0003069939
134.299,-0.0003067697
134.399,-0.0003065258
134.499,-0.0003063384
134.599,-0.0003061548
134.699,-0.0003059316
134.799,-0.0003057319
134.899,-0.000305537
134.999,-0.0003053572
135.099,-0.0003051528
135.1991,-0.0003049164
135.2991,-0.000304712
135.3991,-0.0003045133
135.4991,-0.0003042826
135.5991,-0.0003041103
135.6991,-0.0003038814
135.7991,-0.0003036676
135.8991,-0.000303485
135.9991,-0.0003032467
136.0991,-0.000303033
136.1991,-0.0003028107
136.2991,-0.000302595
136.3991,-0.0003024142
136.4991,-0.0003022033
136.5991,-0.0003020187
136.6991,-0.0003018012
136.7991,-0.000301577
136.8992,-0.0003013821
136.9992,-0.0003011354
137.0992,-0.0003009291
137.1992,-0.0003007078
137.2992,-0.0003004874
137.3992,-0.0003002586
137.4992,-0.0003000919
137.5992,-0.0002998772
137.6992,-0.0002996436
137.7992,-0.0002994769
137.8992,-0.0002992575
137.9992,-0.0002990645
138.0992,-0.0002988564
138.1992,-0.0002986153
138.2992,-0.0002984213
138.3992,-0.0002982649
138.4993,-0.0002980267
138.5993,-0.0002977997
138.6993,-0.000297585
138.7993,-0.0002973618
138.8993,-0.0002971791
138.9993,-0.0002970247
139.0993,-0.0002967629
139.1993,-0.0002965284
139.2993,-0.0002963759
139.3993,-0.000296179
139.4993,-0.0002959803
139.5993,-0.000295759
139.6993,-0.0002955547
139.7993,-0.0002953437
139.8993,-0.0002951676
139.9993,-0.000294952
140.0993,-0.0002947137
140.1994,-0.0002945084
140.2994,-0.0002942946
140.3994,-0.0002941251
140.4994,-0.0002939386
140.5994,-0.0002936787
140.6994,-0.0002934687
140.7994,-0.0002932945
140.8994,-0.0002930967
140.9994,-0.0002928707
141.0994,-0.0002927068
141.1994,-0.0002924733
141.2994,-0.0002922416
141.3994,-0.0002920947
141.4994,-0.0002918753
141.5994,-0.0002916559
141.6994,-0.000291476
141.7995,-0.0002912613
141.8995,-0.0002910193
141.9995,-0.0002908733
142.0995,-0.0002906718
142.1995,-0.0002904495
142.2995,-0.0002902687
142.3995,-0.0002900775
142.4995,-0.0002898694
142.5995,-0.000289681
142.6995,-0.0002894937
142.7995,-0.0002892789
142.8995,-0.0002891047
142.9995,-0.0002888759
143.0995,-0.0002886772
143.1995,-0.0002884813
143.2995,-0.0002882515
143.3996,-0.0002880594
143.4996,-0.0002878946
143.5996,-0.0002876714
143.6996,-0.0002874482
143.7996,-0.0002872768
143.8996,-0.0002870904
143.9996,-0.0002868916
144.0996,-0.0002867109
144.1996,-0.0002864811
144.2996,-0.0002862889
144.3996,-0.0002861034
144.4996,-0.0002858887
144.5996,-0.0002856674
144.6996,-0.0002855083
144.7996,-0.0002853001
144.8996,-0.0002851024
144.9996,-0.0002849093
145.0997,-0.0002847727
145.1997,-0.000284623
145.2997,-0.0002844187
145.3997,-0.0002842124
145.4997,-0.0002840354
145.5997,-0.0002838828
145.6997,-0.0002836935
145.7997,-0.0002834798
145.8997,-0.0002832848
145.9997,-0.0002830946
146.0997,-0.0002828761
146.1997,-0.0002826727
146.2997,-0.0002824966
146.3997,-0.0002823177
146.4997,-0.0002821284
146.5997,-0.0002819494
146.6998,-0.0002817168
146.7998,-0.0002815276
146.8998,-0.0002813599
146.9998,-0.0002811443
147.0998,-0.0002809644
147.1998,-0.0002807638
147.2998,-0.0002805698
147.3998,-0.0002803626
147.4998,-0.0002801705
147.5998,-0.0002800114
147.6998,-0.0002798089
147.7998,-0.0002796337
147.8998,-0.0002794068
147.9998,-0.0002792166
148.0998,-0.0002790499
148.1998,-0.0002788191
148.2999,-0.0002786402
148.3999,-0.0002784453
148.4999,-0.0002782531
148.5999,-0.0002780516
148.6999,-0.0002778604
148.7999,-0.0002776392
148.8999,-0.0002774706
148.9999,-0.0002773284
149.0999,-0.000277124
149.1999,-0.0002769498
149.2999,-0.000276752
149.3999,-0.0002765656
149.4999,-0.0002763933
149.5999,-0.0002761992
149.6999,-0.0002759892
149.7999,-0.0002757783
149.8999,-0.0002756107
150,-0.0002754176
150.1,-0.0002752302
150.2,-0.000275072
150.3,-0.0002748573
150.4,-0.0002746576
150.5,-0.0002745248
150.6,-0.0002743243
150.7,-0.0002741331
150.8,-0.0002739475
150.9,-0.0002737865
151,-0.0002736048
151.1,-0.000273439
151.2,-0.0002731933
151.3,-0.0002729842
151.4,-0.0002728617
151.5,-0.0002726659
151.6001,-0.0002724907
151.7001,-0.0002722976
151.8001,-0.0002721479
151.9001,-0.0002719671
152.0001,-0.0002718061
152.1001,-0.0002715819
152.2001,-0.0002714058
152.3001,-0.0002712231
152.4001,-0.0002709999
152.5001,-0.0002708173
152.6001,-0.0002706713
152.7001,-0.0002704236
152.8001,-0.0002702475
152.9001,-0.0002701392
153.0001,-0.0002699593
153.1001,-0.0002697249
153.2001,-0.0002695337
153.3002,-0.0002693679
153.4002,-0.0002691843
153.5002,-0.0002690176
153.6002,-0.0002688132
153.7002,-0.000268591
153.8002,-0.0002684488
153.9002,-0.0002682727
154.0002,-0.0002680938
154.1002,-0.0002678762
154.2002,-0.0002677086
154.3002,-0.0002675269
154.4002,-0.000267347
154.5002,-0.0002671586
154.6002,-0.0002669505
154.7002,-0.000266798
154.8002,-0.0002666275
154.9003,-0.0002664476
155.0003,-0.0002662866
155.1003,-0.0002660869
155.2003,-0.0002659071
155.3003,-0.0002657206
155.4003,-0.0002655238
155.5003,-0.0002653703
155.6003,-0.0002651951
155.7003,-0.0002650303
155.8003,-0.000264841
155.9003,-0.0002646649
156.0003,-0.0002644634
156.1003,-0.0002643089
156.2003,-0.0002641564
156.3003,-0.0002639652
156.4003,-0.0002637787
156.5004,-0.0002636036
156.6004,-0.0002634425
156.7004,-0.0002632665
156.8004,-0.0002630913
156.9004,-0.0002629208
157.0004,-0.0002627494
157.1004,-0.0002625959
157.2004,-0.0002624029
157.3004,-0.0002622126
157.4004,-0.0002620017
157.5004,-0.0002618736
157.6004,-0.0002616777
157.7004,-0.0002615186
157.8004,-0.0002613472
157.9004,-0.0002611193
158.0004,-0.0002609498
158.1004,-0.0002607916
158.2005,-0.0002606183
158.3005,-0.0002604337
158.4005,-0.0002602397
158.5005,-0.0002600768
158.6005,-0.0002598912
158.7005,-0.0002597171
158.8005,-0.00025954
158.9005,-0.000259363
159.0005,-0.0002592067
159.1005,-0.0002590211
159.2005,-0.000258829
159.3005,-0.0002586331
159.4005,-0.0002584636
159.5005,-0.0002583167
159.6005,-0.0002581642
159.7005,-0.0002579475
159.8006,-0.0002577686
159.9006,-0.000257649
160.0006,-0.0002574513
160.1006,-0.0002572912
160.2006,-0.0002571273
160.3006,-0.0002569182
160.4006,-0.0002567666
160.5006,-0.000256631
160.6006,-0.0002564125
160.7006,-0.0002562402
160.8006,-0.0002560697
160.9006,-0.000255856
161.0006,-0.0002556987
161.1006,-0.0002555621
161.2006,-0.0002554134
161.3006,-0.0002552363
161.4007,-0.0002550649
161.5007,-0.0002548737
161.6007,-0.0002546967
161.7007,-0.0002545507
161.8007,-0.0002543275
161.9007,-0.0002541477
162.0007,-0.0002539951
162.1007,-0.0002538275
162.2007,-0.000253625
162.3007,-0.0002534922
162.4007,-0.0002533133
162.5007,-0.0002531268
162.6007,-0.0002529884
162.7007,-0.0002528462
162.8007,-0.0002526899
162.9007,-0.000252526
163.0007,-0.0002523584
163.1008,-0.000252202
163.2008,-0.0002520099
163.3008,-0.0002518056
163.4008,-0.0002516088
163.5008,-0.0002514515
163.6008,-0.0002512989
163.7008,-0.000251104
163.8008,-0.0002509477
163.9008,-0.0002507734
164.0008,-0.0002506096
164.1008,-0.000250441
164.2008,-0.0002502903
164.3008,-0.0002500945
164.4008,-0.0002499344
164.5008,-0.0002497884
164.6008,-0.0002495925
164.7009,-0.0002494126
164.8009,-0.0002492836
164.9009,-0.0002491019
165.0009,-0.0002489163
165.1009,-0.0002487515
165.2009,-0.0002485914
165.3009,-0.0002484201
165.4009,-0.0002482722
165.5009,-0.0002480942
165.6009,-0.0002478663
165.7009,-0.0002477646
165.8009,-0.0002475885
165.9009,-0.0002474049
166.0009,-0.0002472448
166.1009,-0.0002470818
166.2009,-0.0002469293
166.3009,-0.0002467861
166.401,-0.0002465922
166.501,-0.0002463868
166.601,-0.0002462268
166.701,-0.0002460507
166.801,-0.0002458774
166.901,-0.000245722
167.001,-0.0002455431
167.101,-0.0002453434
167.201,-0.0002452313
167.301,-0.000245043
167.401,-0.0002448707
167.501,-0.0002447219
167.601,-0.0002445637
167.701,-0.0002443904
167.801,-0.0002442425
167.901,-0.0002440787
168.0011,-0.0002439092
168.1011,-0.0002437585
168.2011,-0.0002435569
168.3011,-0.0002433903
168.4011,-0.0002432772
168.5011,-0.0002430833
168.6011,-0.0002429006
168.7011,-0.0002427508
168.8011,-0.0002425804
168.9011,-0.0002424127
169.0011,-0.0002422884
169.1011,-0.0002420935
169.2011,-0.000241923
169.3011,-0.0002417987
169.4011,-0.0002416707
169.5011,-0.0002414748
169.6012,-0.0002413194
169.7012,-0.0002411442
169.8012,-0.0002409747
169.9012,-0.0002408532
170.0012,-0.0002406376
170.1012,-0.0002404973
170.2012,-0.0002404483
170.3012,-0.0002402279
170.4012,-0.0002400405
170.5012,-0.0002398663
170.6012,-0.0002397175
170.7012,-0.0002395744
170.8012,-0.0002394256
170.9012,-0.0002392061
171.0012,-0.0002390592
171.1012,-0.0002390122
171.2012,-0.00023882
171.3013,-0.0002386298
171.4013,-0.0002384659
171.5013,-0.0002383077
171.6013,-0.0002381354
171.7013,-0.0002380139
171.8013,-0.0002377973
171.9013,-0.0002376278
172.0013,-0.0002375327
172.1013,-0.0002373368
172.2013,-0.0002371588
172.3013,-0.0002370317
172.4013,-0.0002368528
172.5013,-0.0002366983
172.6013,-0.0002365665
172.7013,-0.0002364007
172.8013,-0.0002362651
172.9014,-0.0002361079
173.0014,-0.0002359205
173.1014,-0.0002357707
173.2014,-0.0002356718
173.3014,-0.0002354797
173.4014,-0.0002353121
173.5014,-0.0002351689
173.6014,-0.0002350173
173.7014,-0.0002348431
173.8014,-0.0002346792
173.9014,-0.0002345286
174.0014,-0.0002343817
174.1014,-0.0002342244
174.2014,-0.0002340483
174.3014,-0.0002339287
174.4014,-0.0002337432
174.5014,-0.0002336085
174.6015,-0.0002334493
174.7015,-0.0002332817
174.8015,-0.0002331659
174.9015,-0.00023297
175.0015,-0.0002327948
175.1015,-0.0002326658
175.2015,-0.0002325086
175.3015,-0.0002323249
175.4015,-0.0002321997
175.5015,-0.0002320688
175.6015,-0.000231887
175.7015,-0.0002317759
175.8015,-0.0002315885
175.9015,-0.0002314114
176.0015,-0.0002312909
176.1015,-0.0002311374
176.2016,-0.0002309971
176.3016,-0.0002308247
176.4016,-0.000230674
176.5016,-0.0002305394
176.6016,-0.000230384
176.7016,-0.0002302258
176.8016,-0.0002300657
176.9016,-0.0002299226
177.0016,-0.0002297728
177.1016,-0.0002295826
177.2016,-0.0002294583
177.3016,-0.0002292831
177.4016,-0.0002291268
177.5016,-0.000228977
177.6016,-0.0002288198
177.7016,-0.0002287096
177.8017,-0.0002285684
177.9017,-0.0002284035
178.0017,-0.0002282651
178.1017,-0.0002281351
178.2017,-0.0002279656
178.3017,-0.0002277876
178.4017,-0.0002276615
178.5017,-0.0002274788
178.6017,-0.0002273224
178.7017,-0.0002271812
178.8017,-0.0002270446
178.9017,-0.000226925
179.0017,-0.0002267828
179.1017,-0.0002266096
179.2017,-0.0002264448
179.3017,-0.0002263129
179.4017,-0.0002261566
179.5018,-0.0002259871
179.6018,-0.0002258703
179.7018,-0.0002257017
179.8018,-0.000225585
179.9018,-0.0002254719
180.0018,-0.0002253128
180.1018,-0.000225148
180.2018,-0.0002249935
180.3018,-0.0002248466
180.4018,-0.0002247026
180.5018,-0.0002245236
180.6018,-0.0002243635
180.7018,-0.0002242439
180.8018,-0.0002241319
180.9018,-0.0002239567
181.0018,-0.00022379
181.1019,-0.0002236214
181.2019,-0.0002234679
181.3019,-0.0002233446
181.4019,-0.0002232174
181.5019,-0.0002230376
181.6019,-0.0002228925
181.7019,-0.0002227984
181.8019,-0.0002226241
181.9019,-0.0002224678
182.0019,-0.0002222992
182.1019,-0.0002221373
182.2019,-0.0002220177
182.3019,-0.0002218773
182.4019,-0.000221737
182.5019,-0.0002215543
182.6019,-0.0002214281
182.702,-0.0002212878
182.802,-0.0002211447
182.902,-0.0002210185
183.002,-0.0002208716
183.102,-0.0002207058
183.202,-0.0002205768
183.302,-0.0002204252
183.402,-0.0002202642
183.502,-0.0002200965
183.602,-0.00021996
183.702,-0.0002198121
183.802,-0.0002196878
183.902,-0.0002195098
184.002,-0.0002193658
184.102,-0.0002192414
184.202,-0.0002190569
184.302,-0.0002189213
184.4021,-0.0002187781
184.5021,-0.0002186463
184.6021,-0.0002184834
184.7021,-0.000218359
184.8021,-0.000218214
184.9021,-0.0002180699
185.0021,-0.0002179193
185.1021,-0.0002177761
185.2021,-0.0002176537
185.3021,-0.0002175134
185.4021,-0.0002173712
185.5021,-0.000217229
185.6021,-0.0002170821
185.7021,-0.0002169323
185.8021,-0.0002167948
185.9021,-0.0002166319
186.0022,-0.0002164812
186.1022,-0.0002163381
186.2022,-0.0002161959
186.3022,-0.0002160688
186.4022,-0.0002159068
186.5022,-0.0002157495
186.6022,-0.0002156064
186.7022,-0.0002154764
186.8022,-0.0002153399
186.9022,-0.0002151835
187.0022,-0.0002150442
187.1022,-0.0002149245
187.2022,-0.0002148078
187.3022,-0.0002146571
187.4022,-0.0002145008
187.5022,-0.0002144028
187.6022,-0.0002142804
187.7023,-0.0002141363
187.8023,-0.0002140337
187.9023,-0.0002138576
188.0023,-0.000213705
188.1023,-0.0002135977
188.2023,-0.0002134178
188.3023,-0.0002132323
188.4023,-0.0002130938
188.5023,-0.0002129479
188.6023,-0.000212833
188.7023,-0.0002126813
188.8023,-0.0002125599
188.9023,-0.000212396
189.0023,-0.0002122896
189.1023,-0.0002121493
189.2023,-0.0002119797
189.3024,-0.0002118507
189.4024,-0.0002117293
189.5024,-0.0002115692
189.6024,-0.0002114373
189.7024,-0.0002112866
189.8024,-0.0002111708
189.9024,-0.0002110296
190.0024,-0.0002108836
190.1024,-0.0002107188
190.2024,-0.0002106199
190.3024,-0.0002104805
190.4024,-0.0002103374
190.5024,-0.0002101971
190.6024,-0.0002100238
190.7024,-0.0002098976
190.8024,-0.0002097883
190.9025,-0.0002096188
191.0025,-0.0002094794
191.1025,-0.0002093928
191.2025,-0.0002092459
191.3025,-0.0002090773
191.4025,-0.0002089398
191.5025,-0.0002087807
191.6025,-0.0002086394
191.7025,-0.0002085293
191.8025,-0.0002083814
191.9025,-0.0002082383
192.0025,-0.0002081281
192.1025,-0.0002079651
192.2025,-0.0002078135
192.3025,-0.0002077147
192.4025,-0.0002075508
192.5025,-0.0002074058
192.6026,-0.0002072758
192.7026,-0.0002071487
192.8026,-0.0002070102
192.9026,-0.0002069066
193.0026,-0.0002067513
193.1026,-0.0002066232
193.2026,-0.0002064716
193.3026,-0.0002063388
193.4026,-0.0002062135
193.5026,-0.0002061015
193.6026,-0.0002059376
193.7026,-0.0002057964
193.8026,-0.0002056457
193.9026,-0.0002055119
194.0026,-0.0002053858
194.1026,-0.0002052558
194.2027,-0.0002051315
194.3027,-0.0002049676
194.4027,-0.0002048471
194.5027,-0.0002047039
194.6027,-0.0002045796
194.7027,-0.0002044487
194.8027,-0.0002043075
194.9027,-0.0002041737
195.0027,-0.0002040532
195.1027,-0.0002039327
195.2027,-0.0002038065
195.3027,-0.0002036558
195.4027,-0.00020354
195.5027,-0.0002033799
195.6027,-0.0002032113
195.7027,-0.0002031115
195.8027,-0.0002029928
195.9028,-0.0002028544
196.0028,-0.0002027206
196.1028,-0.0002025973
196.2028,-0.0002024428
196.3028,-0.0002023581
196.4028,-0.0002022083
196.5028,-0.0002020473
196.6028,-0.0002019258
196.7028,-0.0002018053
196.8028,-0.0002016603
196.9028,-0.0002015604
197.0028,-0.0002014173
197.1028,-0.0002012628
197.2028,-0.0002011583
197.3028,-0.0002010312
197.4028,-0.000200904
197.5029,-0.0002007873
197.6029,-0.0002006423
197.7029,-0.0002004925
197.8029,-0.0002003654
197.9029,-0.0002002335
198.0029,-0.0002001149
198.1029,-0.0001999746
198.2029,-0.0001998399
198.3029,-0.0001997005
198.4029,-0.0001995941
198.5029,-0.000199466
198.6029,-0.0001993031
198.7029,-0.0001991929
198.8029,-0.0001990827
198.9029,-0.0001989236
199.0029,-0.0001988087
199.103,-0.0001986919
199.203,-0.0001985846
199.303,-0.000198432
199.403,-0.000198286
199.503,-0.00019819
199.603,-0.0001980638
199.703,-0.000197866
199.803,-0.000197769
199.903,-0.0001976946
200.003,-0.0001975666
200.103,-0.0001974074
200.203,-0.0001972718
200.303,-0.0001971682
200.403,-0.0001970288
200.503,-0.0001968555
200.603,-0.000196702
200.703,-0.0001965853
200.8031,-0.0001964807
200.9031,-0.0001963225
201.0031,-0.0001961832
201.1031,-0.0001960701
201.2031,-0.0001959308
201.3031,-0.0001957876
201.4031,-0.0001956756
201.5031,-0.0001955446
201.6031,-0.000195426
201.7031,-0.0001953196
201.8031,-0.0001951557
201.9031,-0.0001950361
202.0031,-0.0001949353
202.1031,-0.0001947856
202.2031,-0.0001946349
202.3031,-0.0001945125
202.4032,-0.0001943609
202.5032,-0.0001942469
202.6032,-0.0001941377
202.7032,-0.0001940144
202.8032,-0.0001938693
202.9032,-0.0001937526
203.0032,-0.0001936216
203.1032,-0.0001935049
203.2032,-0.0001933919
203.3032,-0.0001932412
203.4032,-0.0001931385
203.5032,-0.000193018
203.6032,-0.0001928626
203.7032,-0.0001927468
203.8032,-0.0001926206
203.9032,-0.0001925104
204.0033,-0.0001923644
204.1033,-0.0001922373
204.2033,-0.0001921394
204.3033,-0.0001919981
204.4033,-0.0001918634
204.5033,-0.0001917457
204.6033,-0.0001916139
204.7033,-0.0001914952
204.8033,-0.0001913879
204.9033,-0.0001912701
205.0033,-0.0001911129
205.1033,-0.0001910291
205.2033,-0.000190884
205.3033,-0.0001907569
205.4033,-0.0001906618
205.5033,-0.0001905149
205.6033,-0.0001903755
205.7034,-0.0001902926
205.8034,-0.0001901768
205.9034,-0.0001900402
206.0034,-0.0001899169
206.1034,-0.000189769
206.2034,-0.0001896212
206.3034,-0.0001895684
206.4034,-0.0001894027
206.5034,-0.0001892633
206.6034,-0.0001891663
206.7034,-0.0001890411
206.8034,-0.0001889186
206.9034,-0.0001887972
207.0034,-0.0001886455
207.1034,-0.000188493
207.2034,-0.0001884205
207.3035,-0.0001883141
207.4035,-0.0001881756
207.5035,-0.0001880833
207.6035,-0.0001879487
207.7035,-0.0001878055
207.8035,-0.0001877274
207.9035,-0.0001875861
208.0035,-0.0001874816
208.1035,-0.0001873921
208.2035,-0.0001872565
208.3035,-0.000187118
208.4035,-0.0001870154
208.5035,-0.000186893
208.6035,-0.0001867583
208.7035,-0.0001866557
208.8035,-0.0001865182
208.9035,-0.0001863844
209.0036,-0.0001863119
209.1036,-0.0001861867
209.2036,-0.000186085
209.3036,-0.0001859324
209.4036,-0.0001858128
209.5036,-0.000185697
209.6036,-0.0001855736
209.7036,-0.0001854747
209.8036,-0.0001853146
209.9036,-0.0001851941
210.0036,-0.0001850962
210.1036,-0.0001849737
210.2036,-0.0001848843
210.3036,-0.0001847477
210.4036,-0.0001846046
210.5036,-0.0001844916
210.6037,-0.000184355
210.7037,-0.0001842476
210.8037,-0.0001840875
210.9037,-0.0001840037
211.0037,-0.0001838474
211.1037,-0.0001837287
211.2037,-0.0001836242
211.3037,-0.000183498
211.4037,-0.0001833822
211.5037,-0.0001832786
211.6037,-0.0001831458
211.7037,-0.0001830177
211.8037,-0.0001829104
211.9037,-0.000182787
212.0037,-0.0001826524
212.1037,-0.0001825695
212.2038,-0.0001824245
212.3038,-0.0001823105
212.4038,-0.000182221
212.5038,-0.0001820619
212.6038,-0.0001819479
212.7038,-0.0001818707
212.8038,-0.0001817671
212.9038,-0.0001816249
213.0038,-0.0001814997
213.1038,-0.0001813744
213.2038,-0.0001812558
213.3038,-0.0001811277
213.4038,-0.0001810194
213.5038,-0.0001808885
213.6038,-0.000180767
213.7038,-0.0001806229
213.8038,-0.0001805419
213.9039,-0.0001804459
214.0039,-0.0001803376
214.1039,-0.0001802048
214.2039,-0.0001800814
214.3039,-0.0001799543
214.4039,-0.0001798639
214.5039,-0.0001797424
214.6039,-0.0001796539
214.7039,-0.000179506
214.8039,-0.0001794175
214.9039,-0.000179296
215.0039,-0.0001791821
215.1039,-0.000179054
215.2039,-0.0001789429
215.3039,-0.0001788242
215.4039,-0.0001786952
215.504,-0.0001785926
215.604,-0.000178505
215.704,-0.0001783496
215.804,-0.0001782516
215.904,-0.0001781113
216.004,-0.0001779842
216.104,-0.0001778976
216.204,-0.0001777685
216.304,-0.0001776216
216.404,-0.0001775161
216.504,-0.0001774022
216.604,-0.000177292
216.704,-0.000177212
216.804,-0.0001770557
216.904,-0.0001769455
217.004,-0.0001768946
217.104,-0.0001767486
217.2041,-0.0001766526
217.3041,-0.0001765763
217.4041,-0.0001764614
217.5041,-0.0001763051
217.6041,-0.00017621
217.7041,-0.0001760706
217.8041,-0.000175935
217.9041,-0.0001758596
218.0041,-0.0001757297
218.1041,-0.0001756129
218.2041,-0.0001754961
218.3041,-0.0001753794
218.4041,-0.0001752607
218.5041,-0.0001751524
218.6041,-0.0001750036
218.7041,-0.0001748963
218.8042,-0.000174804
218.9042,-0.000174707
219.0042,-0.0001745827
219.1042,-0.0001744696
219.2042,-0.0001743406
219.3042,-0.0001742521
219.4042,-0.0001741363
219.5042,-0.0001739941
219.6042,-0.0001739159
219.7042,-0.0001738236
219.8042,-0.0001736937
219.9042,-0.0001735336
220.0042,-0.000173445
220.1042,-0.0001733273
220.2042,-0.0001732303
220.3042,-0.0001731362
220.4043,-0.0001729911
220.5043,-0.0001728706
220.6043,-0.0001727538
220.7043,-0.0001726502
220.8043,-0.0001725448
220.9043,-0.0001724327
221.0043,-0.0001723103
221.1043,-0.0001721775
221.2043,-0.000172121
221.3043,-0.0001719986
221.4043,-0.0001718761
221.5043,-0.0001717782
221.6043,-0.0001716708
221.7043,-0.0001715503
221.8043,-0.0001714627
221.9043,-0.0001713648
222.0043,-0.0001712273
222.1044,-0.0001711171
222.2044,-0.0001709918
222.3044,-0.0001708939
222.4044,-0.0001707922
222.5044,-0.0001706735
222.6044,-0.0001705417
222.7044,-0.0001704334
222.8044,-0.0001702799
222.9044,-0.0001701857
223.0044,-0.000170101
223.1044,-0.0001699804
223.2044,-0.0001698457
223.3044,-0.0001697554
223.4044,-0.0001696367
223.5044,-0.0001695651
223.6044,-0.0001694474
223.7045,-0.0001693137
223.8045,-0.000169179
223.9045,-0.0001691206
224.0045,-0.0001690123
224.1045,-0.0001688965
224.2045,-0.0001687797
224.3045,-0.0001686658
224.4045,-0.0001685217
224.5045,-0.0001684736
224.6045,-0.0001683418
224.7045,-0.0001682203
224.8045,-0.0001681205
224.9045,-0.0001679915
225.0045,-0.0001678672
225.1045,-0.0001677702
225.2045,-0.0001676619
225.3046,-0.0001675338
225.4046,-0.0001674443
225.5046,-0.0001673163
225.6046,-0.0001671919
225.7046,-0.0001670884
225.8046,-0.0001669697
225.9046,-0.0001668444
226.0046,-0.0001667616
226.1046,-0.0001666241
226.2046,-0.0001664988
226.3046,-0.0001664405
226.4046,-0.0001663058
226.5046,-0.0001661918
226.6046,-0.0001660977
226.7046,-0.0001659865
226.8046,-0.0001658792
226.9046,-0.0001657812
227.0047,-0.0001656419
227.1047,-0.0001655467
227.2047,-0.0001654648
227.3047,-0.0001653603
227.4047,-0.0001652473
227.5047,-0.0001651493
227.6047,-0.000165041
227.7047,-0.0001649384
227.8047,-0.000164831
227.9047,-0.000164734
228.0047,-0.0001646191
228.1047,-0.0001645429
228.2047,-0.0001644327
228.3047,-0.0001642763
228.4047,-0.0001641831
228.5047,-0.00016412
228.6048,-0.0001639985
228.7048,-0.0001638535
228.8048,-0.0001637697
228.9048,-0.0001636906
229.0048,-0.0001635644
229.1048,-0.0001634608
229.2048,-0.0001633374
229.3048,-0.0001632508
229.4048,-0.0001631755
229.5048,-0.0001630521
229.6048,-0.0001629523
229.7048,-0.0001628638
229.8048,-0.0001627639
229.9048,-0.0001626387
230.0048,-0.0001625341
230.1048,-0.00016244
230.2048,-0.0001622837
230.3049,-0.000162197
230.4049,-0.0001620708
230.5049,-0.0001619785
230.6049,-0.0001619192
230.7049,-0.0001617723
230.8049,-0.0001616593
230.9049,-0.0001615548
231.0049,-0.0001614766
231.1049,-0.0001613739
231.2049,-0.0001612722
231.3049,-0.0001611564
231.4049,-0.0001610264
231.5049,-0.0001609671
231.6049,-0.0001608758
231.7049,-0.000160759
231.8049,-0.0001606582
231.905,-0.0001605462
232.005,-0.0001604294
232.105,-0.0001603399
232.205,-0.000160241
232.305,-0.0001601308
232.405,-0.0001600423
232.505,-0.0001599171
232.605,-0.0001598107
232.705,-0.0001597334
232.805,-0.0001596016
232.905,-0.0001595103
233.005,-0.0001594227
233.105,-0.0001592814
233.205,-0.0001591844
233.305,-0.0001591561
233.405,-0.0001590253
233.5051,-0.0001588972
233.6051,-0.0001587813
233.7051,-0.0001587032
233.8051,-0.0001585798
233.9051,-0.0001585054
234.0051,-0.0001583792
234.1051,-0.000158238
234.2051,-0.0001581899
234.3051,-0.0001580958
234.4051,-0.0001579978
234.5051,-0.0001578933
234.6051,-0.0001577709
234.7051,-0.0001576842
234.8051,-0.0001575797
234.9051,-0.0001574695
235.0051,-0.0001573584
235.1051,-0.0001572548
235.2052,-0.0001571672
235.3052,-0.0001570533
235.4052,-0.0001569638
235.5052,-0.0001568546
235.6052,-0.0001567463
235.7052,-0.0001566559
235.8052,-0.0001565852
235.9052,-0.0001564525
236.0052,-0.0001563281
236.1052,-0.0001562415
236.2052,-0.0001561473
236.3052,-0.0001560532
236.4052,-0.0001559392
236.5052,-0.0001558055
236.6052,-0.0001557122
236.7052,-0.0001556454
236.8053,-0.0001555277
236.9053,-0.0001554354
237.0053,-0.0001553516
237.1053,-0.0001552423
237.2053,-0.0001551293
237.3053,-0.0001550333
237.4053,-0.0001549419
237.5053,-0.0001548364
237.6053,-0.0001547733
237.7053,-0.0001546547
237.8053,-0.000154537
237.9053,-0.0001544579
238.0053,-0.0001543665
238.1053,-0.0001542469
238.2053,-0.0001541678
238.3053,-0.0001540294
238.4053,-0.0001539324
238.5054,-0.0001538674
238.6054,-0.0001537619
238.7054,-0.0001536395
238.8054,-0.0001535435
238.9054,-0.0001534436
239.0054,-0.0001533494
239.1054,-0.0001532788
239.2054,-0.0001531724
239.3054,-0.0001530565
239.4054,-0.0001529784
239.5054,-0.0001528786
239.6054,-0.000152775
239.7054,-0.0001526874
239.8054,-0.0001525885
239.9054,-0.0001524953
240.0054,-0.000152403
240.1055,-0.000152306
240.2055,-0.0001521873
240.3055,-0.0001521148
240.4055,-0.0001520046
240.5055,-0.0001519039
240.6055,-0.0001518314
240.7055,-0.0001517174
240.8055,-0.000151612
240.9055,-0.0001515281
241.0055,-0.0001514189
241.1055,-0.0001513153
241.2055,-0.0001512456
241.3055,-0.0001511204
241.4055,-0.0001510026
241.5055,-0.0001509358
241.6055,-0.0001508388
241.7056,-0.000150738
241.8056,-0.0001506297
241.9056,-0.0001505308
242.0056,-0.0001504047
242.1056,-0.000150366
242.2056,-0.000150253
242.3056,-0.0001501391
242.4056,-0.0001500901
242.5056,-0.0001499912
242.6056,-0.0001499027
242.7056,-0.0001498142
242.8056,-0.0001496946
242.9056,-0.0001495938
243.0056,-0.0001495147
243.1056,-0.0001494224
243.2056,-0.0001493358
243.3056,-0.0001492171
243.4057,-0.000149106
243.5057,-0.0001490241
243.6057,-0.000148944
243.7057,-0.0001488564
243.8057,-0.0001487321
243.9057,-0.0001486662
244.0057,-0.0001485626
244.1057,-0.0001484731
244.2057,-0.0001483583
244.3057,-0.0001482782
244.4057,-0.0001481859
244.5057,-0.000148072
244.6057,-0.0001479957
244.7057,-0.0001478742
244.8057,-0.0001477847
244.9057,-0.0001477358
245.0058,-0.0001476218
245.1058,-0.0001475145
245.2058,-0.0001474457
245.3058,-0.0001473459
245.4058,-0.0001472621
245.5058,-0.0001471764
245.6058,-0.0001470766
245.7058,-0.0001469702
245.8058,-0.0001468967
245.9058,-0.0001467856
246.0058,-0.0001467008
246.1058,-0.0001466198
246.2058,-0.0001464984
246.3058,-0.0001464315
246.4058,-0.000146374
246.5058,-0.0001462403
246.6059,-0.0001461405
246.7059,-0.0001460538
246.8059,-0.0001459371
246.9059,-0.0001458485
247.0059,-0.0001457939
247.1059,-0.0001456564
247.2059,-0.0001455378
247.3059,-0.0001455076
247.4059,-0.0001454219
247.5059,-0.000145292
247.6059,-0.0001452157
247.7059,-0.000145098
247.8059,-0.0001450114
247.9059,-0.0001449539
248.0059,-0.0001448296
248.1059,-0.0001447091
248.2059,-0.0001446375
248.306,-0.0001445574
248.406,-0.0001444755
248.506,-0.0001443747
248.606,-0.0001442608
248.706,-0.000144161
248.806,-0.0001440894
248.906,-0.000144015
249.006,-0.0001439067
249.106,-0.0001438135
249.206,-0.0001436986
249.306,-0.0001436025
249.406,-0.0001435451
249.506,-0.000143433
249.606,-0.000143336
249.706,-0.0001432343
249.806,-0.000143142
249.9061,-0.0001430441
250.0061,-0.0001429734
250.1061,-0.0001428623
250.2061,-0.000142755
250.3061,-0.0001426994
250.4061,-0.0001426052
250.5061,-0.0001425459
250.6061,-0.0001424131
250.7061,-0.0001423293
250.8061,-0.000142238
250.9061,-0.0001421287
251.0061,-0.0001420609
251.1061,-0.000141962
251.2061,-0.000141865
251.3061,-0.0001418
251.4061,-0.0001416936
251.5061,-0.0001416164
251.6062,-0.0001415467
251.7062,-0.0001414375
251.8062,-0.0001413198
251.9062,-0.0001412548
252.0062,-0.0001411926
252.1062,-0.0001410749
252.2062,-0.0001409949
252.3062,-0.0001408753
252.4062,-0.0001407933
252.5062,-0.0001407368
252.6062,-0.0001406116
252.7062,-0.0001405278
252.8062,-0.0001404618
252.9062,-0.0001403743
253.0062,-0.0001402707
253.1062,-0.0001402019
253.2063,-0.0001400842
253.3063,-0.0001399769
253.4063,-0.0001399524
253.5063,-0.0001398441
253.6063,-0.0001397414
253.7063,-0.0001396698
253.8063,-0.0001395719
253.9063,-0.0001395032
254.0063,-0.0001394269
254.1063,-0.000139328
254.2063,-0.0001392112
254.3063,-0.0001391462
254.4063,-0.00013907
254.5063,-0.0001389899
254.6063,-0.0001389089
254.7063,-0.0001388185
254.8064,-0.0001387046
254.9064,-0.0001386368
255.0064,-0.0001385379
255.1064,-0.0001384352
255.2064,-0.0001383806
255.3064,-0.0001383109
255.4064,-0.0001382196
255.5064,-0.0001380925
255.6064,-0.0001379926
255.7064,-0.0001379135
255.8064,-0.0001378429
255.9064,-0.0001377384
256.0064,-0.0001376272
256.1064,-0.0001375623
256.2064,-0.0001374897
256.3064,-0.0001373918
256.4064,-0.0001372901
256.5064,-0.0001372101
256.6064,-0.0001371366
256.7065,-0.000137049
256.8065,-0.0001369661
256.9065,-0.0001368644
257.0065,-0.0001367816
257.1065,-0.0001367034
257.2065,-0.0001366365
257.3065,-0.0001365216
257.4065,-0.0001364491
257.5065,-0.0001363634
257.6065,-0.0001362664
257.7065,-0.0001362241
257.8065,-0.0001360932
257.9065,-0.0001360018
258.0065,-0.0001359387
258.1065,-0.0001358417
258.2065,-0.0001357504
258.3065,-0.000135675
258.4066,-0.000135579
258.5066,-0.0001354933
258.6066,-0.0001354057
258.7066,-0.0001353332
258.8066,-0.0001352456
258.9066,-0.000135175
259.0066,-0.0001350751
259.1066,-0.0001349734
259.2066,-0.0001349254
259.3066,-0.0001348378
259.4066,-0.0001347503
259.5066,-0.0001346655
259.6066,-0.0001345628
259.7066,-0.0001344809
259.8066,-0.0001344432
259.9066,-0.0001343274
260.0067,-0.0001342106
260.1067,-0.0001341466
260.2067,-0.0001340675
260.3067,-0.000133963
260.4067,-0.0001339168
260.5067,-0.0001338217
260.6067,-0.0001337294
260.7067,-0.0001336767
260.8067,-0.0001335552
260.9067,-0.0001334959
261.0067,-0.0001334233
261.1067,-0.000133316
261.2067,-0.0001332171
261.3067,-0.000133154
261.4067,-0.0001330636
261.5067,-0.0001329704
261.6068,-0.0001328809
261.7068,-0.0001327933
261.8068,-0.0001327076
261.9068,-0.0001326351
262.0068,-0.0001325664
262.1068,-0.0001324675
262.2068,-0.0001323809
262.3068,-0.0001322848
262.4068,-0.0001322047
262.5068,-0.00013212
262.6068,-0.0001320569
262.7068,-0.0001319373
262.8068,-0.0001318563
262.9068,-0.0001317631
263.0068,-0.0001317075
263.1068,-0.0001316246
263.2068,-0.000131505
263.3069,-0.0001314382
263.4069,-0.0001313553
263.5069,-0.0001312809
263.6069,-0.0001311867
263.7069,-0.000131102
263.8069,-0.0001310426
263.9069,-0.0001309447
264.0069,-0.0001308628
264.1069,-0.0001308006
264.2069,-0.0001307121
264.3069,-0.0001306104
264.4069,-0.0001305322
264.5069,-0.000130455
264.6069,-0.0001303731
264.7069,-0.0001303015
264.8069,-0.0001302017
264.907,-0.0001301292
265.007,-0.0001300755
265.107,-0.0001299785
265.207,-0.0001298806
265.307,-0.0001298118
265.407,-0.0001297318
265.507,-0.0001296536
265.607,-0.0001295613
265.707,-0.0001294643
265.807,-0.0001294003
265.907,-0.0001293541
266.007,-0.0001292402
266.107,-0.0001291291
266.207,-0.0001290801
266.307,-0.0001289991
266.407,-0.0001288927
266.507,-0.0001288211
266.6071,-0.0001287251
266.7071,-0.0001286318
266.8071,-0.0001285904
266.9071,-0.0001284811
267.0071,-0.0001283983
267.1071,-0.0001283521
267.2071,-0.0001282777
267.3071,-0.0001281873
267.4071,-0.0001281082
267.5071,-0.0001280611
267.6071,-0.0001279566
267.7071,-0.0001279086
267.8071,-0.0001278398
267.9071,-0.0001277353
268.0071,-0.0001276788
268.1071,-0.0001276147
268.2072,-0.0001275385
268.3072,-0.0001274867
268.4072,-0.0001274028
268.5072,-0.0001273388
268.6072,-0.0001272512
268.7072,-0.0001272154
268.8072,-0.0001271298
268.9072,-0.0001270742
269.0072,-0.0001270017
269.1072,-0.000126883
269.2072,-0.0001268209
269.3072,-0.0001267681
269.4072,-0.0001266476
269.5072,-0.0001265741
269.6072,-0.0001265779
269.7072,-0.00012648
269.8073,-0.000126382
269.9073,-0.0001262954
270.0073,-0.0001262097
270.1073,-0.0001261193
270.2073,-0.0001260722
270.3073,-0.0001259554
270.4073,-0.0001258594
270.5073,-0.0001258264
270.6073,-0.0001257435
270.7073,-0.000125671
270.8073,-0.0001255872
270.9073,-0.0001255024
271.0073,-0.0001254092
271.1073,-0.0001253273
271.2073,-0.0001252633
271.3073,-0.0001251823
271.4073,-0.0001251107
271.5074,-0.0001250325
271.6074,-0.0001249289
271.7074,-0.0001248837
271.8074,-0.0001248065
271.9074,-0.0001247208
272.0074,-0.0001246474
272.1074,-0.0001245748
272.2074,-0.0001244844
272.3074,-0.0001244053
272.4074,-0.0001243281
272.5074,-0.0001242368
272.6074,-0.0001242066
272.7074,-0.0001240899
272.8074,-0.0001239957
272.9074,-0.0001239373
273.0074,-0.0001238751
273.1075,-0.0001237772
273.2075,-0.0001237066
273.3075,-0.0001236199
273.4075,-0.0001235719
273.5075,-0.00012349
273.6075,-0.000123408
273.7075,-0.0001233186
273.8075,-0.000123231
273.9075,-0.0001231764
274.0075,-0.0001230831
274.1075,-0.0001230182
274.2075,-0.0001229654
274.3075,-0.0001228656
274.4075,-0.0001227865
274.5075,-0.0001227046
274.6075,-0.0001226339
274.7076,-0.0001225586
274.8076,-0.0001224983
274.9076,-0.000122407
275.0076,-0.0001223128
275.1076,-0.0001222554
275.2076,-0.0001221715
275.3076,-0.000122116
275.4076,-0.000122034
275.5076,-0.0001219239
275.6076,-0.0001218645
275.7076,-0.0001217901
275.8076,-0.0001217148
275.9076,-0.0001216187
276.0076,-0.0001215773
276.1076,-0.00012147
276.2076,-0.0001214125
276.3076,-0.0001213381
276.4077,-0.0001212317
276.5077,-0.0001211564
276.6077,-0.0001211036
276.7077,-0.0001210405
276.8077,-0.0001209501
276.9077,-0.000120871
277.0077,-0.0001207797
277.1077,-0.0001207326
277.2077,-0.0001206808
277.3077,-0.0001205941
277.4077,-0.0001205188
277.5077,-0.0001204529
277.6077,-0.0001203879
277.7077,-0.0001203088
277.8077,-0.0001202561
277.9077,-0.0001201741
278.0078,-0.0001200913
278.1078,-0.0001200206
278.2078,-0.0001199538
278.3078,-0.000119886
278.4078,-0.0001198229
278.5078,-0.0001197183
278.6078,-0.0001196373
278.7078,-0.0001195695
278.8078,-0.0001195225
278.9078,-0.0001194113
279.0078,-0.0001193727
279.1078,-0.0001192409
279.2078,-0.00011919
279.3078,-0.0001191363
279.4078,-0.0001190506
279.5078,-0.0001189452
279.6078,-0.000118899
279.7079,-0.0001188209
279.8079,-0.0001187521
279.9079,-0.0001186871
280.0079,-0.0001185986
280.1079,-0.0001185091
280.2079,-0.0001184668
280.3079,-0.000118383
280.4079,-0.0001183076
280.5079,-0.0001182389
280.6079,-0.0001181409
280.7079,-0.0001180816
280.8079,-0.000118043
280.9079,-0.0001179592
281.0079,-0.0001178678
281.1079,-0.0001177897
281.2079,-0.0001177228
281.308,-0.0001176446
281.408,-0.0001175994
281.508,-0.0001175175
281.608,-0.000117428
281.708,-0.0001173819
281.808,-0.0001172934
281.908,-0.0001172303
282.008,-0.0001171738
282.108,-0.0001170636
282.208,-0.0001169788
282.308,-0.0001169581
282.408,-0.0001168658
282.508,-0.0001167801
282.608,-0.0001167208
282.708,-0.0001166134
282.808,-0.0001165635
282.9081,-0.0001165306
283.0081,-0.0001164232
283.1081,-0.0001163403
283.2081,-0.0001162782
283.3081,-0.0001162245
283.4081,-0.0001161219
283.5081,-0.0001160889
283.6081,-0.0001159731
283.7081,-0.0001158911
283.8081,-0.0001158393
283.9081,-0.0001157932
284.0081,-0.000115716
284.1081,-0.0001156397
284.2081,-0.0001155634
284.3081,-0.0001154862
284.4081,-0.0001154344
284.5081,-0.0001153741
284.6082,-0.0001152799
284.7082,-0.0001152206
284.8082,-0.0001151538
284.9082,-0.000115069
285.0082,-0.0001150342
285.1082,-0.0001149579
285.2082,-0.0001148543
285.3082,-0.0001147997
285.4082,-0.0001147356
285.5082,-0.0001146622
285.6082,-0.0001145897
285.7082,-0.0001145237
285.8082,-0.0001144531
285.9082,-0.0001143994
286.0082,-0.000114293
286.1082,-0.0001142271
286.2083,-0.0001141791
286.3083,-0.0001141263
286.4083,-0.0001140133
286.5083,-0.0001139587
286.6083,-0.0001139333
286.7083,-0.0001138024
286.8083,-0.0001137336
286.9083,-0.0001137082
287.0083,-0.0001136319
287.1083,-0.0001135594
287.2083,-0.0001134812
287.3083,-0.0001133937
287.4083,-0.000113324
287.5083,-0.0001132769
287.6083,-0.0001131846
287.7083,-0.0001131083
287.8083,-0.0001130462
287.9084,-0.0001129445
288.0084,-0.0001129049
288.1084,-0.000112855
288.2084,-0.0001127787
288.3084,-0.0001126902
288.4084,-0.0001126384
288.5084,-0.0001125715
288.6084,-0.0001124868
288.7084,-0.0001124303
288.8084,-0.0001123596
288.9084,-0.0001122664
289.0084,-0.0001122193
289.1084,-0.0001121553
289.2084,-0.0001120734
289.3084,-0.000112031
289.4084,-0.0001119651
289.5085,-0.0001119048
289.6085,-0.000111804
289.7085,-0.0001117324
289.8085,-0.0001116609
289.9085,-0.0001116063
290.0085,-0.0001115168
290.1085,-0.0001114471
290.2085,-0.0001113887
290.3085,-0.0001113303
290.4085,-0.0001112333
290.5085,-0.0001111571
290.6085,-0.0001111081
290.7085,-0.0001110572
290.8085,-0.0001109602
290.9085,-0.0001109
291.0085,-0.0001108387
291.1086,-0.0001107615
291.2086,-0.0001107144
291.3086,-0.0001105958
291.4086,-0.0001105327
291.5086,-0.0001104969
291.6086,-0.0001104319
291.7086,-0.0001103519
291.8086,-0.0001102822
291.9086,-0.0001102266
292.0086,-0.0001101334
292.1086,-0.0001101146
292.2086,-0.0001100204
292.3086,-0.0001099507
292.4086,-0.0001098998
292.5086,-0.0001098198
292.6086,-0.0001097633
292.7086,-0.000109736
292.8087,-0.000109655
292.9087,-0.0001095712
293.0087,-0.0001095071
293.1087,-0.0001094318
293.2087,-0.0001093517
293.3087,-0.000109331
293.4087,-0.000109251
293.5087,-0.0001091342
293.6087,-0.0001091069
293.7087,-0.0001090542
293.8087,-0.0001089948
293.9087,-0.0001089016
294.0087,-0.0001088602
294.1087,-0.0001087745
294.2087,-0.0001087321
294.3087,-0.0001086699
294.4088,-0.0001085682
294.5088,-0.0001085127
294.6088,-0.0001084533
294.7088,-0.0001083658
294.8088,-0.000108329
294.9088,-0.0001082603
295.0088,-0.0001082
295.1088,-0.0001081303
295.2088,-0.0001080588
295.3088,-0.0001079787
295.4088,-0.000107941
295.5088,-0.0001078591
295.6088,-0.0001077979
295.7088,-0.000107715
295.8088,-0.0001076717
295.9088,-0.0001076143
296.0089,-0.0001075474
296.1089,-0.0001074852
296.2089,-0.0001074005
296.3089,-0.0001073496
296.4089,-0.0001073016
296.5089,-0.0001071924
296.6089,-0.0001071302
296.7089,-0.0001071123
296.8089,-0.0001070078
296.9089,-0.0001069409
297.0089,-0.0001069032
297.1089,-0.0001068251
297.2089,-0.000106745
297.3089,-0.0001067055
297.4089,-0.0001066292
297.5089,-0.0001065699
297.6089,-0.0001065115
297.709,-0.000106422
297.809,-0.0001063476
297.909,-0.0001063109
298.009,-0.0001062516
298.109,-0.0001061725
298.209,-0.0001061047
298.309,-0.000106035
298.409,-0.000105954
298.509,-0.0001059408
298.609,-0.0001058513
298.709,-0.0001057685
298.809,-0.0001057214
298.909,-0.0001056583
299.009,-0.0001055999
299.109,-0.0001055509
299.209,-0.0001054605
299.3091,-0.0001053777
299.4091,-0.0001053616
299.5091,-0.0001052957
299.6091,-0.0001052185
299.7091,-0.0001051441
299.8091,-0.0001050763
299.9091,-0.0001050424
300.0091,-0.0001049765
300.1091,-0.0001048795
300.2091,-0.0001048192
300.3091,-0.000104806
300.4091,-0.0001047118
300.5091,-0.000104645
300.6091,-0.0001046252
300.7091,-0.0001045838
300.8091,-0.0001045
300.9091,-0.0001044152
301.0092,-0.0001043643
301.1092,-0.0001043191
301.2092,-0.0001042918
301.3092,-0.0001041826
301.4092,-0.0001041138
301.5092,-0.0001040649
301.6092,-0.0001040008
301.7092,-0.0001039387
301.8092,-0.0001038784
301.9092,-0.0001038021
302.0092,-0.0001037353
302.1092,-0.0001036948
302.2092,-0.0001036147
302.3092,-0.0001035394
302.4092,-0.000103498
302.5092,-0.0001034085
302.6093,-0.0001033435
302.7093,-0.0001033068
302.8093,-0.0001032682
302.9093,-0.0001031947
303.0093,-0.0001031165
303.1093,-0.0001030506
303.2093,-0.0001029838
303.3093,-0.0001029188
303.4093,-0.0001028886
303.5093,-0.0001027973
303.6093,-0.000102754
303.7093,-0.0001026777
303.8093,-0.0001026278
303.9093,-0.0001025732
304.0093,-0.000102511
304.1093,-0.000102446
304.2094,-0.0001023707
304.3094,-0.0001023123
304.4094,-0.000102252
304.5094,-0.0001021701
304.6094,-0.0001021023
304.7094,-0.0001020373
304.8094,-0.00010201
304.9094,-0.0001019469
305.0094,-0.0001018669
305.1094,-0.0001018028
305.2094,-0.0001017379
305.3094,-0.0001016738
305.4094,-0.0001016192
305.5094,-0.0001015561
305.6094,-0.0001015071
305.7094,-0.0001014506
305.8094,-0.0001013988
305.9095,-0.0001013339
306.0095,-0.0001012576
306.1095,-0.0001012227
306.2095,-0.0001011578
306.3095,-0.0001010918
306.4095,-0.0001010381
306.5095,-0.0001009619
306.6095,-0.0001009167
306.7095,-0.0001008696
306.8095,-0.0001007942
306.9095,-0.0001007236
307.0095,-0.0001006756
307.1095,-0.0001006125
307.2095,-0.0001005503
307.3095,-0.0001004938
307.4095,-0.0001004251
307.5096,-0.000100361
307.6096,-0.0001003074
307.7096,-0.0001002377
307.8096,-0.0001002066
307.9096,-0.0001001322
308.0096,-0.0001000503
308.1096,-0.000100006
308.2096,-9.996551E-05
308.3096,-9.989489E-05
308.4096,-9.981578E-05
308.5096,-9.976399E-05
308.6096,-9.971407E-05
308.7096,-9.965192E-05
308.8096,-9.960389E-05
308.9096,-9.950312E-05
309.0096,-9.945321E-05
309.1096,-9.945228E-05
309.2097,-9.939013E-05
309.3097,-9.928652E-05
309.4097,-9.925451E-05
309.5097,-9.92093E-05
309.6097,-9.912079E-05
309.7097,-9.90671E-05
309.8097,-9.8988E-05
309.9097,-9.895221E-05
310.0097,-9.891266E-05
310.1097,-9.882884E-05
310.2097,-9.874786E-05
310.3097,-9.87149E-05
310.4097,-9.86697E-05
310.5097,-9.859247E-05
310.6097,-9.851997E-05
310.7097,-9.847758E-05
310.8098,-9.840884E-05
310.9098,-9.837493E-05
311.0098,-9.829395E-05
311.1098,-9.823178E-05
311.2098,-9.818941E-05
311.3098,-9.812349E-05
311.4098,-9.80585E-05
311.5098,-9.799824E-05
311.6098,-9.794173E-05
311.7098,-9.788711E-05
311.8098,-9.784097E-05
311.9098,-9.776187E-05
312.0098,-9.772513E-05
312.1098,-9.769593E-05
312.2098,-9.762626E-05
312.3098,-9.755845E-05
312.4099,-9.748594E-05
312.5099,-9.743791E-05
312.6099,-9.737105E-05
312.7099,-9.732584E-05
312.8099,-9.725992E-05
312.9099,-9.718458E-05
313.0099,-9.715821E-05
313.1099,-9.708193E-05
313.2099,-9.701036E-05
313.3099,-9.695198E-05
313.4099,-9.691713E-05
313.5099,-9.684933E-05
313.6099,-9.678341E-05
313.7099,-9.672785E-05
313.8099,-9.667416E-05
313.9099,-9.660824E-05
314.0099,-9.655833E-05
314.11,-9.649429E-05
314.21,-9.644909E-05
314.31,-9.639635E-05
314.41,-9.628523E-05
314.51,-9.626074E-05
314.61,-9.624474E-05
314.71,-9.617223E-05
314.81,-9.608652E-05
314.91,-9.606298E-05
315.01,-9.601778E-05
315.11,-9.594338E-05
315.21,-9.590478E-05
315.31,-9.58153E-05
315.41,-9.577481E-05
315.51,-9.575974E-05
315.61,-9.567216E-05
315.7101,-9.559211E-05
315.8101,-9.557234E-05
315.9101,-9.552996E-05
316.0101,-9.544426E-05
316.1101,-9.539058E-05
316.2101,-9.532466E-05
316.3101,-9.526722E-05
316.4101,-9.523143E-05
316.5101,-9.516456E-05
316.6101,-9.511465E-05
316.7101,-9.504968E-05
316.8101,-9.498564E-05
316.9101,-9.49329E-05
317.0101,-9.492443E-05
317.1101,-9.484155E-05
317.2101,-9.477469E-05
317.3102,-9.472101E-05
317.4102,-9.468335E-05
317.5102,-9.465039E-05
317.6102,-9.455433E-05
317.7102,-9.451666E-05
317.8102,-9.44319E-05
317.9102,-9.438575E-05
318.0102,-9.432925E-05
318.1102,-9.425486E-05
318.2102,-9.425109E-05
318.3102,-9.415692E-05
318.4102,-9.408817E-05
318.5102,-9.404579E-05
318.6102,-9.400624E-05
318.7102,-9.395444E-05
318.8102,-9.387534E-05
318.9102,-9.383202E-05
319.0103,-9.379246E-05
319.1103,-9.372749E-05
319.2103,-9.368228E-05
319.3103,-9.358906E-05
319.4103,-9.354008E-05
319.5103,-9.352408E-05
319.6103,-9.343367E-05
319.7103,-9.336963E-05
319.8103,-9.337716E-05
319.9103,-9.330654E-05
320.0103,-9.326981E-05
320.1103,-9.320764E-05
320.2103,-9.313796E-05
320.3103,-9.308711E-05
320.4103,-9.307016E-05
320.5103,-9.297222E-05
320.6104,-9.292702E-05
320.7104,-9.287899E-05
320.8104,-9.281778E-05
320.9104,-9.272925E-05
321.0104,-9.270948E-05
321.1104,-9.266051E-05
321.2104,-9.260682E-05
321.3104,-9.253243E-05
321.4104,-9.249664E-05
321.5104,-9.243638E-05
321.6104,-9.239211E-05
321.7104,-9.232996E-05
321.8104,-9.225179E-05
321.9104,-9.221224E-05
322.0104,-9.219529E-05
322.1104,-9.209735E-05
322.2104,-9.203332E-05
322.3105,-9.198905E-05
322.4105,-9.192972E-05
322.5105,-9.188452E-05
322.6105,-9.180353E-05
322.7105,-9.175173E-05
322.8105,-9.16943E-05
322.9105,-9.165944E-05
323.0105,-9.158129E-05
323.1105,-9.151913E-05
323.2105,-9.14598E-05
323.3105,-9.142212E-05
323.4105,-9.137033E-05
323.5105,-9.13176E-05
323.6105,-9.126015E-05
323.7105,-9.119423E-05
323.8105,-9.114809E-05
323.9106,-9.110099E-05
324.0106,-9.106145E-05
324.1106,-9.101342E-05
324.2106,-9.092772E-05
324.3106,-9.087876E-05
324.4106,-9.085709E-05
324.5106,-9.079871E-05
324.6106,-9.075068E-05
324.7106,-9.069134E-05
324.8106,-9.060659E-05
324.9106,-9.058775E-05
325.0106,-9.056326E-05
325.1106,-9.049264E-05
325.2106,-9.04286E-05
325.3106,-9.038435E-05
325.4106,-9.033914E-05
325.5107,-9.030524E-05
325.6107,-9.023649E-05
325.7107,-9.016021E-05
325.8107,-9.011501E-05
325.9107,-9.006981E-05
326.0107,-9.002366E-05
326.1107,-8.995114E-05
326.2107,-8.989558E-05
326.3107,-8.983155E-05
326.4107,-8.978257E-05
326.5107,-8.974208E-05
326.6107,-8.969405E-05
326.7107,-8.963283E-05
326.8107,-8.956692E-05
326.9107,-8.951606E-05
327.0107,-8.946333E-05
327.1107,-8.943602E-05
327.2108,-8.935126E-05
327.3108,-8.930511E-05
327.4108,-8.925615E-05
327.5108,-8.91921E-05
327.6108,-8.915915E-05
327.7108,-8.910358E-05
327.8108,-8.902825E-05
327.9108,-8.895856E-05
328.0108,-8.894161E-05
328.1108,-8.887286E-05
328.2108,-8.880883E-05
328.3108,-8.878152E-05
328.4108,-8.873066E-05
328.5108,-8.864026E-05
328.6108,-8.86073E-05
328.7108,-8.856209E-05
328.8109,-8.848205E-05
328.9109,-8.845002E-05
329.0109,-8.835868E-05
329.1109,-8.832289E-05
329.2109,-8.831536E-05
329.3109,-8.824097E-05
329.4109,-8.818069E-05
329.5109,-8.813926E-05
329.6109,-8.806203E-05
329.7109,-8.802531E-05
329.8109,-8.800835E-05
329.9109,-8.790665E-05
330.0109,-8.787651E-05
330.1109,-8.790005E-05
330.2109,-8.782001E-05
330.3109,-8.775032E-05
330.4109,-8.772207E-05
330.511,-8.769098E-05
330.611,-8.761847E-05
330.711,-8.759964E-05
330.811,-8.752994E-05
330.911,-8.745744E-05
331.011,-8.741506E-05
331.111,-8.736986E-05
331.211,-8.731713E-05
331.311,-8.725779E-05
331.411,-8.721071E-05
331.511,-8.716173E-05
331.611,-8.711182E-05
331.711,-8.704967E-05
331.811,-8.699128E-05
331.911,-8.696492E-05
332.011,-8.68811E-05
332.1111,-8.680954E-05
332.2111,-8.680859E-05
332.3111,-8.675868E-05
332.4111,-8.669464E-05
332.5111,-8.665038E-05
332.6111,-8.658352E-05
332.7111,-8.654301E-05
332.8111,-8.652041E-05
332.9111,-8.646862E-05
333.0111,-8.637821E-05
333.1111,-8.636503E-05
333.2111,-8.633396E-05
333.3111,-8.626803E-05
333.4111,-8.621435E-05
333.5111,-8.615502E-05
333.6111,-8.610888E-05
333.7112,-8.607686E-05
333.8112,-8.606367E-05
333.9112,-8.598174E-05
334.0112,-8.591206E-05
334.1112,-8.588004E-05
334.2112,-8.582731E-05
334.3112,-8.578681E-05
334.4112,-8.573125E-05
334.5112,-8.565874E-05
334.6112,-8.561636E-05
334.7112,-8.557586E-05
334.8112,-8.555608E-05
334.9112,-8.548734E-05
335.0112,-8.541671E-05
335.1112,-8.538187E-05
335.2112,-8.535362E-05
335.3112,-8.531688E-05
335.4113,-8.523685E-05
335.5113,-8.518128E-05
335.6113,-8.516338E-05
335.7113,-8.510782E-05
335.8113,-8.506167E-05
335.9113,-8.502023E-05
336.0113,-8.493548E-05
336.1113,-8.490064E-05
336.2113,-8.488651E-05
336.3113,-8.482342E-05
336.4113,-8.476221E-05
336.5113,-8.473866E-05
336.6113,-8.466615E-05
336.7113,-8.463695E-05
336.8113,-8.460305E-05
336.9113,-8.454089E-05
337.0114,-8.447497E-05
337.1114,-8.444955E-05
337.2114,-8.439305E-05
337.3114,-8.434219E-05
337.4114,-8.430264E-05
337.5114,-8.423578E-05
337.6114,-8.417363E-05
337.7114,-8.415667E-05
337.8114,-8.407568E-05
337.9114,-8.402672E-05
338.0114,-8.401164E-05
338.1114,-8.394949E-05
338.2114,-8.388262E-05
338.3114,-8.38459E-05
338.4114,-8.382236E-05
338.5114,-8.375173E-05
338.6115,-8.371029E-05
338.7115,-8.366886E-05
338.8115,-8.361235E-05
338.9115,-8.358692E-05
339.0115,-8.352665E-05
339.1115,-8.344661E-05
339.2115,-8.343436E-05
339.3115,-8.338163E-05
339.4115,-8.334112E-05
339.5115,-8.33157E-05
339.6115,-8.324319E-05
339.7115,-8.320646E-05
339.8115,-8.316032E-05
339.9115,-8.311982E-05
340.0115,-8.305672E-05
340.1115,-8.301718E-05
340.2115,-8.296444E-05
340.3116,-8.291641E-05
340.4116,-8.289192E-05
340.5116,-8.28552E-05
340.6116,-8.278927E-05
340.7116,-8.272806E-05
340.8116,-8.268663E-05
340.9116,-8.264143E-05
341.0116,-8.263107E-05
341.1116,-8.255196E-05
341.2116,-8.250016E-05
341.3116,-8.249169E-05
341.4116,-8.245025E-05
341.5116,-8.239092E-05
341.6116,-8.23316E-05
341.7116,-8.231276E-05
341.8116,-8.225155E-05
341.9117,-8.221576E-05
342.0117,-8.217149E-05
342.1117,-8.214325E-05
342.2117,-8.212253E-05
342.3117,-8.206886E-05
342.4117,-8.201423E-05
342.5117,-8.196244E-05
342.6117,-8.194266E-05
342.7117,-8.190029E-05
342.8117,-8.182212E-05
342.9117,-8.175808E-05
343.0117,-8.171947E-05
343.1117,-8.170534E-05
343.2117,-8.164602E-05
343.3117,-8.156314E-05
343.4117,-8.151511E-05
343.5117,-8.148027E-05
343.6118,-8.144919E-05
343.7118,-8.14087E-05
343.8118,-8.133713E-05
343.9118,-8.130512E-05
344.0118,-8.125896E-05
344.1118,-8.123637E-05
344.2118,-8.118362E-05
344.3118,-8.112429E-05
344.4118,-8.110263E-05
344.5118,-8.105932E-05
344.6118,-8.09934E-05
344.7118,-8.093972E-05
344.8118,-8.091523E-05
344.9118,-8.088039E-05
345.0118,-8.084743E-05
345.1118,-8.077303E-05
345.2119,-8.072029E-05
345.3119,-8.071841E-05
345.4119,-8.063555E-05
345.5119,-8.05941E-05
345.6119,-8.059033E-05
345.7119,-8.052064E-05
345.8119,-8.043966E-05
345.9119,-8.043589E-05
346.0119,-8.039257E-05
346.1119,-8.035207E-05
346.2119,-8.029652E-05
346.3119,-8.023436E-05
346.4119,-8.019104E-05
346.5119,-8.021082E-05
346.6119,-8.013077E-05
346.7119,-8.007333E-05
346.812,-8.002624E-05
346.912,-8.000552E-05
347.012,-7.99622E-05
347.112,-7.993301E-05
347.212,-7.986708E-05
347.312,-7.979928E-05
347.412,-7.980964E-05
347.512,-7.974278E-05
347.612,-7.969287E-05
347.712,-7.965802E-05
347.812,-7.960717E-05
347.912,-7.955536E-05
348.012,-7.952994E-05
348.112,-7.948474E-05
348.212,-7.943765E-05
348.312,-7.939246E-05
348.412,-7.934348E-05
348.5121,-7.930299E-05
348.6121,-7.927661E-05
348.7121,-7.923706E-05
348.8121,-7.917492E-05
348.9121,-7.913724E-05
349.0121,-7.907885E-05
349.1121,-7.904401E-05
349.2121,-7.900917E-05
349.3121,-7.897621E-05
349.4121,-7.889522E-05
349.5121,-7.884153E-05
349.6121,-7.881047E-05
349.7121,-7.877656E-05
349.8121,-7.874737E-05
349.9121,-7.867203E-05
350.0121,-7.860705E-05
350.1122,-7.859009E-05
350.2122,-7.858257E-05
350.3122,-7.851382E-05
350.4122,-7.846484E-05
350.5122,-7.841211E-05
350.6122,-7.836879E-05
350.7122,-7.834148E-05
350.8122,-7.832924E-05
350.9122,-7.823412E-05
351.0122,-7.818986E-05
351.1122,-7.818139E-05
351.2122,-7.814278E-05
351.3122,-7.810228E-05
351.4122,-7.806838E-05
351.5122,-7.8026E-05
351.6122,-7.797891E-05
351.7122,-7.794407E-05
351.8123,-7.787155E-05
351.9123,-7.78546E-05
352.0123,-7.781411E-05
352.1123,-7.774725E-05
352.2123,-7.76898E-05
352.3123,-7.767661E-05
352.4123,-7.764271E-05
352.5123,-7.758433E-05
352.6123,-7.753159E-05
352.7123,-7.74798E-05
352.8123,-7.746473E-05
352.9123,-7.742235E-05
353.0123,-7.734325E-05
353.1123,-7.730275E-05
353.2123,-7.730934E-05
353.3123,-7.724718E-05
353.4124,-7.717562E-05
353.5124,-7.715396E-05
353.6124,-7.71031E-05
353.7124,-7.705225E-05
353.8124,-7.706261E-05
353.9124,-7.695431E-05
354.0124,-7.692794E-05
354.1124,-7.694207E-05
354.2124,-7.689687E-05
354.3124,-7.682623E-05
354.4124,-7.67782E-05
354.5124,-7.674524E-05
354.6124,-7.670005E-05
354.7124,-7.666613E-05
354.8124,-7.661623E-05
354.9124,-7.656444E-05
355.0125,-7.653995E-05
355.1125,-7.648815E-05
355.2125,-7.645237E-05
355.3125,-7.640151E-05
355.4125,-7.635536E-05
355.5125,-7.632429E-05
355.6125,-7.628097E-05
355.7125,-7.6232E-05
355.8125,-7.617927E-05
355.9125,-7.617456E-05
356.0125,-7.610581E-05
356.1125,-7.605684E-05
356.2125,-7.603047E-05
356.3125,-7.601446E-05
356.4125,-7.594478E-05
356.5125,-7.590993E-05
356.6125,-7.587321E-05
356.7126,-7.582611E-05
356.8126,-7.579126E-05
356.9126,-7.573288E-05
357.0126,-7.569334E-05
357.1126,-7.569239E-05
357.2126,-7.565378E-05
357.3126,-7.55888E-05
357.4126,-7.554925E-05
357.5126,-7.553418E-05
357.6126,-7.545884E-05
357.7126,-7.541834E-05
357.8126,-7.539387E-05
357.9126,-7.535243E-05
358.0126,-7.534207E-05
358.1126,-7.527426E-05
358.2126,-7.525354E-05
358.3127,-7.51961E-05
358.4127,-7.51848E-05
358.5127,-7.510758E-05
358.6127,-7.505484E-05
358.7127,-7.506707E-05
358.8127,-7.498986E-05
358.9127,-7.4939E-05
359.0127,-7.493053E-05
359.1127,-7.488909E-05
359.2127,-7.485519E-05
359.3127,-7.480904E-05
359.4127,-7.474218E-05
359.5127,-7.470357E-05
359.6127,-7.470357E-05
359.7127,-7.464424E-05
359.8127,-7.461976E-05
359.9128,-7.45689E-05
360.0128,-7.451617E-05
360.1128,-7.447755E-05
360.2128,-7.444742E-05
360.3128,-7.440599E-05
360.4128,-7.435607E-05
360.5128,-7.432029E-05
360.6128,-7.427697E-05
360.7128,-7.422423E-05
360.8128,-7.42054E-05
360.9128,-7.417337E-05
361.0128,-7.411028E-05
361.1128,-7.407261E-05
361.2128,-7.403023E-05
361.3128,-7.401611E-05
361.4128,-7.39662E-05
361.5128,-7.391722E-05
361.6129,-7.384848E-05
361.7129,-7.385601E-05
361.8129,-7.380611E-05
361.9129,-7.37496E-05
362.0129,-7.371381E-05
362.1129,-7.366767E-05
362.2129,-7.362246E-05
362.3129,-7.360456E-05
362.4129,-7.354336E-05
362.5129,-7.35283E-05
362.6129,-7.350757E-05
362.7129,-7.344354E-05
362.8129,-7.341529E-05
362.9129,-7.33729E-05
363.0129,-7.331923E-05
363.1129,-7.327685E-05
363.213,-7.326272E-05
363.313,-7.321186E-05
363.413,-7.316478E-05
363.513,-7.314312E-05
363.613,-7.310735E-05
363.713,-7.305084E-05
363.813,-7.30094E-05
363.913,-7.298679E-05
364.013,-7.293312E-05
364.113,-7.292747E-05
364.213,-7.285778E-05
364.313,-7.282294E-05
364.413,-7.279845E-05
364.513,-7.276738E-05
364.613,-7.271369E-05
364.713,-7.267037E-05
364.813,-7.264871E-05
364.9131,-7.259597E-05
365.0131,-7.256019E-05
365.1131,-7.250369E-05
365.2131,-7.247355E-05
365.3131,-7.246037E-05
365.4131,-7.241234E-05
365.5131,-7.233794E-05
365.6131,-7.232476E-05
365.7131,-7.23031E-05
365.8131,-7.225036E-05
365.9131,-7.223152E-05
366.0131,-7.217313E-05
366.1131,-7.212606E-05
366.2131,-7.211851E-05
366.3131,-7.207614E-05
366.4131,-7.204225E-05
366.5132,-7.200174E-05
366.6132,-7.198762E-05
366.7132,-7.1933E-05
366.8132,-7.187932E-05
366.9132,-7.186613E-05
367.0132,-7.1836E-05
367.1132,-7.180116E-05
367.2132,-7.176537E-05
367.3132,-7.169379E-05
367.4132,-7.16712E-05
367.5132,-7.166649E-05
367.6132,-7.161658E-05
367.7132,-7.157514E-05
367.8132,-7.154406E-05
367.9132,-7.14885E-05
368.0132,-7.147815E-05
368.1133,-7.14593E-05
368.2133,-7.140939E-05
368.3133,-7.135948E-05
368.4133,-7.132841E-05
368.5133,-7.128886E-05
368.6133,-7.128132E-05
368.7133,-7.123988E-05
368.8133,-7.118339E-05
368.9133,-7.114195E-05
369.0133,-7.111934E-05
369.1133,-7.108544E-05
369.2133,-7.105625E-05
369.3133,-7.102517E-05
369.4133,-7.097243E-05
369.5133,-7.092157E-05
369.6133,-7.090368E-05
369.7133,-7.08566E-05
369.8134,-7.083118E-05
369.9134,-7.080669E-05
370.0134,-7.074924E-05
370.1134,-7.070498E-05
370.2134,-7.069368E-05
370.3134,-7.066166E-05
370.4134,-7.06127E-05
370.5134,-7.059197E-05
370.6134,-7.0543E-05
370.7134,-7.047708E-05
370.8134,-7.046484E-05
370.9134,-7.04187E-05
371.0134,-7.039421E-05
371.1134,-7.035089E-05
371.2134,-7.030757E-05
371.3134,-7.02812E-05
371.4135,-7.028497E-05
371.5135,-7.021622E-05
371.6135,-7.017385E-05
371.7135,-7.014559E-05
371.8135,-7.008909E-05
371.9135,-7.006743E-05
372.0135,-7.006272E-05
372.1135,-6.999115E-05
372.2135,-6.993653E-05
372.3135,-6.996007E-05
372.4135,-6.990922E-05
372.5135,-6.98546E-05
372.6135,-6.981599E-05
372.7135,-6.979339E-05
372.8135,-6.975007E-05
372.9135,-6.974347E-05
373.0135,-6.967756E-05
373.1136,-6.964459E-05
373.2136,-6.96267E-05
373.3136,-6.958337E-05
373.4136,-6.955136E-05
373.5136,-6.952781E-05
373.6136,-6.946378E-05
373.7136,-6.941387E-05
373.8136,-6.9428E-05
373.9136,-6.93762E-05
374.0136,-6.933194E-05
374.1136,-6.929332E-05
374.2136,-6.926884E-05
374.3136,-6.923494E-05
374.4136,-6.923211E-05
374.5136,-6.918032E-05
374.6136,-6.913605E-05
374.7137,-6.910403E-05
374.8137,-6.908614E-05
374.9137,-6.903811E-05
375.0137,-6.904754E-05
375.1137,-6.898632E-05
375.2137,-6.894771E-05
375.3137,-6.891474E-05
375.4137,-6.888461E-05
375.5137,-6.88639E-05
375.6137,-6.884788E-05
375.7137,-6.87782E-05
375.8137,-6.873676E-05
375.9137,-6.872547E-05
376.0137,-6.870757E-05
376.1137,-6.864824E-05
376.2137,-6.863505E-05
376.3138,-6.858421E-05
376.4138,-6.853806E-05
376.5138,-6.851827E-05
376.6138,-6.849568E-05
376.7138,-6.844954E-05
376.8138,-6.844011E-05
376.9138,-6.837984E-05
377.0138,-6.834783E-05
377.1138,-6.835819E-05
377.2138,-6.830168E-05
377.3138,-6.823482E-05
377.4138,-6.822352E-05
377.5138,-6.817266E-05
377.6138,-6.814912E-05
377.7138,-6.812746E-05
377.8138,-6.807755E-05
377.9138,-6.804365E-05
378.0139,-6.802105E-05
378.1139,-6.798808E-05
378.2139,-6.793629E-05
378.3139,-6.793346E-05
378.4139,-6.78779E-05
378.5139,-6.781009E-05
378.6139,-6.781104E-05
378.7139,-6.776961E-05
378.8139,-6.774606E-05
378.9139,-6.771216E-05
379.0139,-6.766884E-05
379.1139,-6.762175E-05
379.2139,-6.760198E-05
379.3139,-6.758219E-05
379.4139,-6.753417E-05
379.5139,-6.753417E-05
379.614,-6.747861E-05
379.714,-6.742116E-05
379.814,-6.741739E-05
379.914,-6.738161E-05
380.014,-6.73364E-05
380.114,-6.73025E-05
380.214,-6.726296E-05
380.314,-6.721493E-05
380.414,-6.71716E-05
380.514,-6.715466E-05
380.614,-6.709909E-05
380.714,-6.706802E-05
380.814,-6.70068E-05
380.914,-6.697384E-05
381.014,-6.695783E-05
381.114,-6.692958E-05
381.2141,-6.686931E-05
381.3141,-6.680433E-05
381.4141,-6.680056E-05
381.5141,-6.676007E-05
381.6141,-6.674218E-05
381.7141,-6.670263E-05
381.8141,-6.665083E-05
381.9141,-6.664424E-05
382.0141,-6.662258E-05
382.1141,-6.658114E-05
382.2141,-6.653123E-05
382.3141,-6.650486E-05
382.4141,-6.647284E-05
382.5141,-6.645589E-05
382.6141,-6.643046E-05
382.7141,-6.637019E-05
382.8141,-6.635889E-05
382.9142,-6.631745E-05
383.0142,-6.628073E-05
383.1142,-6.627602E-05
383.2142,-6.622517E-05
383.3142,-6.618749E-05
383.4142,-6.616583E-05
383.5142,-6.613193E-05
383.6142,-6.611592E-05
383.7142,-6.608673E-05
383.8142,-6.605282E-05
383.9142,-6.599538E-05
384.0142,-6.596618E-05
384.1142,-6.596996E-05
384.2142,-6.594642E-05
384.3142,-6.590874E-05
384.4142,-6.586636E-05
384.5143,-6.583058E-05
384.6143,-6.581551E-05
384.7143,-6.57995E-05
384.8143,-6.573828E-05
384.9143,-6.569592E-05
385.0143,-6.569403E-05
385.1143,-6.563941E-05
385.2143,-6.56121E-05
385.3143,-6.560173E-05
385.4143,-6.556878E-05
385.5143,-6.554241E-05
385.6143,-6.549344E-05
385.7143,-6.545859E-05
385.8143,-6.544918E-05
385.9143,-6.541904E-05
386.0143,-6.537761E-05
386.1143,-6.533429E-05
386.2144,-6.534088E-05
386.3144,-6.530133E-05
386.4144,-6.525424E-05
386.5144,-6.52241E-05
386.6144,-6.519397E-05
386.7144,-6.517042E-05
386.8144,-6.515913E-05
386.9144,-6.509886E-05
387.0144,-6.505648E-05
387.1144,-6.504801E-05
387.2144,-6.500374E-05
387.3144,-6.498302E-05
387.4144,-6.496984E-05
387.5144,-6.490863E-05
387.6144,-6.486248E-05
387.7144,-6.48427E-05
387.8145,-6.482293E-05
387.9145,-6.47796E-05
388.0145,-6.476454E-05
388.1145,-6.47071E-05
388.2145,-6.466566E-05
388.3145,-6.46892E-05
388.4145,-6.464305E-05
388.5145,-6.45809E-05
388.6145,-6.457054E-05
388.7145,-6.453382E-05
388.8145,-6.451122E-05
388.9145,-6.450179E-05
389.0145,-6.442834E-05
389.1145,-6.442552E-05
389.2145,-6.440291E-05
389.3145,-6.435018E-05
389.4146,-6.429367E-05
389.5146,-6.429462E-05
389.6146,-6.426919E-05
389.7146,-6.422398E-05
389.8146,-6.419855E-05
389.9146,-6.415336E-05
390.0146,-6.41251E-05
390.1146,-6.411663E-05
390.2146,-6.405636E-05
390.3146,-6.402811E-05
390.4146,-6.405071E-05
390.5146,-6.401963E-05
390.6146,-6.396972E-05
390.7146,-6.39311E-05
390.8146,-6.392452E-05
390.9146,-6.388684E-05
391.0146,-6.385105E-05
391.1147,-6.381999E-05
391.2147,-6.377949E-05
391.3147,-6.378138E-05
391.4147,-6.373711E-05
391.5147,-6.370321E-05
391.6147,-6.367966E-05
391.7147,-6.363164E-05
391.8147,-6.361186E-05
391.9147,-6.359114E-05
392.0147,-6.359114E-05
392.1147,-6.350921E-05
392.2147,-6.350545E-05
392.3147,-6.348661E-05
392.4147,-6.346966E-05
392.5147,-6.345647E-05
392.6147,-6.339526E-05
392.7148,-6.337737E-05
392.8148,-6.333781E-05
392.9148,-6.333311E-05
393.0148,-6.33058E-05
393.1148,-6.32606E-05
393.2148,-6.323046E-05
393.3148,-6.321728E-05
393.4148,-6.318808E-05
393.5148,-6.316925E-05
393.6148,-6.310897E-05
393.7148,-6.308731E-05
393.8148,-6.306943E-05
393.9148,-6.304588E-05
394.0148,-6.302044E-05
394.1148,-6.298748E-05
394.2148,-6.290838E-05
394.3148,-6.29065E-05
394.4149,-6.29065E-05
394.5149,-6.284434E-05
394.6149,-6.278973E-05
394.7149,-6.278219E-05
394.8149,-6.279066E-05
394.9149,-6.275206E-05
395.0149,-6.270685E-05
395.1149,-6.26626E-05
395.2149,-6.263152E-05
395.3149,-6.262964E-05
395.4149,-6.258726E-05
395.5149,-6.25769E-05
395.6149,-6.254299E-05
395.7149,-6.249685E-05
395.8149,-6.24912E-05
395.9149,-6.249026E-05
396.015,-6.243376E-05
396.115,-6.238573E-05
396.215,-6.23989E-05
396.315,-6.235464E-05
396.415,-6.229908E-05
396.515,-6.227178E-05
396.615,-6.225106E-05
396.715,-6.222093E-05
396.815,-6.22068E-05
396.915,-6.215971E-05
397.015,-6.212487E-05
397.115,-6.215594E-05
397.215,-6.211357E-05
397.315,-6.203634E-05
397.415,-6.202975E-05
397.515,-6.200903E-05
397.6151,-6.199679E-05
397.7151,-6.195442E-05
397.8151,-6.193181E-05
397.9151,-6.188378E-05
398.0151,-6.187625E-05
398.1151,-6.185836E-05
398.2151,-6.180751E-05
398.3151,-6.177831E-05
398.4151,-6.175759E-05
398.5151,-6.172934E-05
398.6151,-6.173123E-05
398.7151,-6.16879E-05
398.8151,-6.163328E-05
398.9151,-6.160974E-05
399.0151,-6.160126E-05
399.1151,-6.15683E-05
399.2151,-6.152969E-05
399.3152,-6.147507E-05
399.4152,-6.148449E-05
399.5152,-6.149673E-05
399.6152,-6.145812E-05
399.7152,-6.140256E-05
399.8152,-6.13809E-05
399.9152,-6.136583E-05
400.0152,-6.133098E-05
400.1152,-6.13178E-05
400.2152,-6.124435E-05
400.3152,-6.121233E-05
400.4152,-6.122551E-05
400.5152,-6.11822E-05
400.6152,-6.116241E-05
400.7152,-6.11417E-05
400.8152,-6.110215E-05
400.9153,-6.106918E-05
401.0153,-6.106071E-05
401.1153,-6.104753E-05
401.2153,-6.099008E-05
401.3153,-6.097407E-05
401.4153,-6.092887E-05
401.5153,-6.090156E-05
401.6153,-6.091757E-05
401.7153,-6.086295E-05
401.8153,-6.083469E-05
401.9153,-6.080173E-05
402.0153,-6.0765E-05
402.1153,-6.076218E-05
402.2153,-6.073958E-05
402.3153,-6.069531E-05
402.4153,-6.06699E-05
402.5154,-6.065953E-05
402.6154,-6.063881E-05
402.7154,-6.059173E-05
402.8154,-6.059455E-05
402.9154,-6.054652E-05
403.0154,-6.05032E-05
403.1154,-6.04872E-05
403.2154,-6.047212E-05
403.3154,-6.041562E-05
403.4154,-6.042881E-05
403.5154,-6.038455E-05
403.6154,-6.034311E-05
403.7154,-6.033934E-05
403.8154,-6.032145E-05
403.9154,-6.026777E-05
404.0154,-6.026683E-05
404.1154,-6.022445E-05
404.2155,-6.020467E-05
404.3155,-6.018301E-05
404.4155,-6.015947E-05
404.5155,-6.012275E-05
404.6155,-6.010579E-05
404.7155,-6.006342E-05
404.8155,-6.002763E-05
404.9155,-6.002951E-05
405.0155,-6.000315E-05
405.1155,-5.996642E-05
405.2155,-5.994382E-05
405.3155,-5.990426E-05
405.4155,-5.988543E-05
405.5155,-5.989202E-05
405.6155,-5.984588E-05
405.7155,-5.97969E-05
405.8156,-5.97922E-05
405.9156,-5.977054E-05
406.0156,-5.97357E-05
406.1156,-5.971215E-05
406.2156,-5.969802E-05
406.3156,-5.968013E-05
406.4156,-5.963681E-05
406.5156,-5.960385E-05
406.6156,-5.95756E-05
406.7156,-5.956806E-05
406.8156,-5.953417E-05
406.9156,-5.950968E-05
407.0156,-5.950686E-05
407.1156,-5.95012E-05
407.2156,-5.944847E-05
407.3156,-5.941644E-05
407.4156,-5.940138E-05
407.5157,-5.94042E-05
407.6157,-5.934299E-05
407.7157,-5.933075E-05
407.8157,-5.932886E-05
407.9157,-5.927895E-05
408.0157,-5.926294E-05
408.1157,-5.923093E-05
408.2157,-5.921209E-05
408.3157,-5.920267E-05
408.4157,-5.915653E-05
408.5157,-5.912828E-05
408.6157,-5.911133E-05
408.7157,-5.908966E-05
408.8157,-5.905859E-05
408.9157,-5.902752E-05
409.0157,-5.898136E-05
409.1158,-5.898984E-05
409.2158,-5.898136E-05
409.3158,-5.891921E-05
409.4158,-5.88806E-05
409.5158,-5.889473E-05
409.6158,-5.888625E-05
409.7158,-5.885141E-05
409.8158,-5.881185E-05
409.9158,-5.879302E-05
410.0158,-5.875817E-05
410.1158,-5.876006E-05
410.2158,-5.87384E-05
410.3158,-5.86979E-05
410.4158,-5.868095E-05
410.5158,-5.862633E-05
410.6158,-5.861221E-05
410.7159,-5.861692E-05
410.8159,-5.857548E-05
410.9159,-5.8551E-05
411.0159,-5.853122E-05
411.1159,-5.848413E-05
411.2159,-5.847565E-05
411.3159,-5.84766E-05
411.4159,-5.841633E-05
411.5159,-5.838337E-05
411.6159,-5.839278E-05
411.7159,-5.840126E-05
411.8159,-5.8357E-05
411.9159,-5.832027E-05
412.0159,-5.828637E-05
412.1159,-5.826659E-05
412.2159,-5.82939E-05
412.3159,-5.824305E-05
412.416,-5.82035E-05
412.516,-5.819314E-05
412.616,-5.815358E-05
412.716,-5.811403E-05
412.816,-5.812816E-05
412.916,-5.807919E-05
413.016,-5.804152E-05
413.116,-5.806224E-05
413.216,-5.801609E-05
413.316,-5.798219E-05
413.416,-5.797089E-05
413.516,-5.793887E-05
413.616,-5.792474E-05
413.716,-5.79012E-05
413.816,-5.786259E-05
413.916,-5.783998E-05
414.0161,-5.781079E-05
414.1161,-5.777878E-05
414.2161,-5.77703E-05
414.3161,-5.773263E-05
414.4161,-5.773452E-05
414.5161,-5.770061E-05
414.6161,-5.766859E-05
414.7161,-5.764317E-05
414.8161,-5.762527E-05
414.9161,-5.760926E-05
415.0161,-5.759231E-05
415.1161,-5.754522E-05
415.2161,-5.751132E-05
415.3161,-5.753675E-05
415.4161,-5.746801E-05
415.5161,-5.742657E-05
415.6161,-5.744258E-05
415.7162,-5.741245E-05
415.8162,-5.73776E-05
415.9162,-5.735876E-05
416.0162,-5.732769E-05
416.1162,-5.731262E-05
416.2162,-5.730226E-05
416.3162,-5.727495E-05
416.4162,-5.722975E-05
416.5162,-5.722692E-05
416.6162,-5.71949E-05
416.7162,-5.715817E-05
416.8162,-5.715347E-05
416.9162,-5.710449E-05
417.0162,-5.705929E-05
417.1162,-5.706683E-05
417.2162,-5.706494E-05
417.3163,-5.698395E-05
417.4163,-5.697737E-05
417.5163,-5.698019E-05
417.6163,-5.695759E-05
417.7163,-5.693875E-05
417.8163,-5.692086E-05
417.9163,-5.686341E-05
418.0163,-5.686153E-05
418.1163,-5.686907E-05
418.2163,-5.681256E-05
418.3163,-5.67796E-05
418.4163,-5.677301E-05
418.5163,-5.674758E-05
418.6163,-5.672969E-05
418.7163,-5.66939E-05
418.8163,-5.66713E-05
418.9164,-5.662986E-05
419.0164,-5.66308E-05
419.1164,-5.65969E-05
419.2164,-5.658843E-05
419.3164,-5.656394E-05
419.4164,-5.653098E-05
419.5164,-5.650932E-05
419.6164,-5.649049E-05
419.7164,-5.645094E-05
419.8164,-5.647354E-05
419.9164,-5.643869E-05
420.0164,-5.638218E-05
420.1164,-5.637371E-05
420.2164,-5.638784E-05
420.3164,-5.632474E-05
420.4164,-5.63012E-05
420.5164,-5.630873E-05
420.6165,-5.625506E-05
420.7165,-5.624281E-05
420.8165,-5.622775E-05
420.9165,-5.621456E-05
421.0165,-5.618066E-05
421.1165,-5.615146E-05
421.2165,-5.614958E-05
421.3165,-5.609967E-05
421.4165,-5.608178E-05
421.5165,-5.606294E-05
421.6165,-5.604034E-05
421.7165,-5.603752E-05
421.8165,-5.600644E-05
421.9165,-5.597536E-05
422.0165,-5.595935E-05
422.1165,-5.597253E-05
422.2166,-5.592262E-05
422.3166,-5.590661E-05
422.4166,-5.588966E-05
422.5166,-5.586141E-05
422.6166,-5.586235E-05
422.7166,-5.584728E-05
422.8166,-5.57936E-05
422.9166,-5.576817E-05
423.0166,-5.576253E-05
423.1166,-5.574652E-05
423.2166,-5.572203E-05
423.3166,-5.567872E-05
423.4166,-5.563634E-05
423.5166,-5.565046E-05
423.6166,-5.56288E-05
423.7166,-5.55949E-05
423.8167,-5.557701E-05
423.9167,-5.555252E-05
424.0167,-5.553275E-05
424.1167,-5.551297E-05
424.2167,-5.548001E-05
424.3167,-5.544988E-05
424.4167,-5.54414E-05
424.5167,-5.542727E-05
424.6167,-5.54009E-05
424.7167,-5.536794E-05
424.8167,-5.535758E-05
424.9167,-5.531332E-05
425.0167,-5.530861E-05
425.1167,-5.531238E-05
425.2167,-5.526059E-05
425.3167,-5.522386E-05
425.4167,-5.522198E-05
425.5168,-5.523045E-05
425.6168,-5.518337E-05
425.7168,-5.516265E-05
425.8168,-5.511556E-05
425.9168,-5.51231E-05
426.0168,-5.51231E-05
426.1168,-5.504681E-05
426.2168,-5.504023E-05
426.3168,-5.507412E-05
426.4168,-5.506471E-05
426.5168,-5.498466E-05
426.6168,-5.49743E-05
426.7168,-5.495641E-05
426.8168,-5.493475E-05
426.9168,-5.492439E-05
427.0168,-5.486977E-05
427.1169,-5.484246E-05
427.2169,-5.483869E-05
427.3169,-5.48321E-05
427.4169,-5.479349E-05
427.5169,-5.4769E-05
427.6169,-5.475582E-05
427.7169,-5.472003E-05
427.8169,-5.476053E-05
427.9169,-5.469837E-05
428.0169,-5.46494E-05
428.1169,-5.464658E-05
428.2169,-5.4672E-05
428.3169,-5.460515E-05
428.4169,-5.457218E-05
428.5169,-5.456559E-05
428.6169,-5.454958E-05
428.7169,-5.454675E-05
428.817,-5.450343E-05
428.917,-5.446671E-05
429.017,-5.447236E-05
429.117,-5.447047E-05
429.217,-5.441868E-05
429.317,-5.438572E-05
429.417,-5.440173E-05
429.517,-5.436406E-05
429.617,-5.434899E-05
429.717,-5.431885E-05
429.817,-5.429908E-05
429.917,-5.426706E-05
430.017,-5.4268E-05
430.117,-5.422845E-05
430.217,-5.422751E-05
430.317,-5.421809E-05
430.4171,-5.4155E-05
430.5171,-5.415405E-05
430.6171,-5.416912E-05
430.7171,-5.413427E-05
430.8171,-5.408436E-05
430.9171,-5.409849E-05
431.0171,-5.40514E-05
431.1171,-5.403727E-05
431.2171,-5.405234E-05
431.3171,-5.397324E-05
431.4171,-5.395346E-05
431.5171,-5.398737E-05
431.6171,-5.396476E-05
431.7171,-5.393557E-05
431.8171,-5.388754E-05
431.9171,-5.386588E-05
432.0172,-5.384611E-05
432.1172,-5.385929E-05
432.2172,-5.382162E-05
432.3172,-5.379431E-05
432.4172,-5.376983E-05
432.5172,-5.373781E-05
432.6172,-5.372086E-05
432.7172,-5.373121E-05
432.8172,-5.371332E-05
432.9172,-5.365211E-05
433.0172,-5.366153E-05
433.1172,-5.363327E-05
433.2172,-5.359278E-05
433.3172,-5.360785E-05
433.4172,-5.356547E-05
433.5172,-5.353816E-05
433.6172,-5.35052E-05
433.7173,-5.348919E-05
433.8173,-5.347695E-05
433.9173,-5.347412E-05
434.0173,-5.343645E-05
434.1173,-5.341197E-05
434.2173,-5.34195E-05
434.3173,-5.339125E-05
434.4173,-5.334322E-05
434.5173,-5.336488E-05
434.6173,-5.334228E-05
434.7173,-5.329896E-05
434.8173,-5.329613E-05
434.9173,-5.326788E-05
435.0173,-5.323586E-05
435.1173,-5.323963E-05
435.2173,-5.320855E-05
435.3174,-5.317088E-05
435.4174,-5.316429E-05
435.5174,-5.317277E-05
435.6174,-5.313133E-05
435.7174,-5.309931E-05
435.8174,-5.308236E-05
435.9174,-5.3072E-05
436.0174,-5.305505E-05
436.1174,-5.304658E-05
436.2174,-5.299008E-05
436.3174,-5.297124E-05
436.4174,-5.298818E-05
436.5174,-5.295993E-05
436.6174,-5.293357E-05
436.7174,-5.292321E-05
436.8174,-5.286011E-05
436.9174,-5.288836E-05
437.0175,-5.287989E-05
437.1175,-5.283469E-05
437.2175,-5.279607E-05
437.3175,-5.283469E-05
437.4175,-5.282433E-05
437.5175,-5.275464E-05
437.6175,-5.27537E-05
437.7175,-5.272168E-05
437.8175,-5.270473E-05
437.9175,-5.271508E-05
438.0175,-5.265576E-05
438.1175,-5.262656E-05
438.2175,-5.26341E-05
438.3175,-5.263316E-05
438.4175,-5.257759E-05
438.5175,-5.256253E-05
438.6176,-5.256253E-05
438.7176,-5.253898E-05
438.8176,-5.251732E-05
438.9176,-5.251167E-05
439.0176,-5.247118E-05
439.1176,-5.245705E-05
439.2176,-5.244105E-05
439.3176,-5.242409E-05
439.4176,-5.241185E-05
439.5176,-5.237136E-05
439.6176,-5.233557E-05
439.7176,-5.232898E-05
439.8176,-5.233934E-05
439.9176,-5.229978E-05
440.0176,-5.227718E-05
440.1176,-5.225458E-05
440.2177,-5.222068E-05
440.3177,-5.222162E-05
440.4177,-5.220373E-05
440.5177,-5.21896E-05
440.6177,-5.217265E-05
440.7177,-5.214911E-05
440.8177,-5.212933E-05
440.9177,-5.209731E-05
441.0177,-5.208601E-05
441.1177,-5.207659E-05
441.2177,-5.206247E-05
441.3177,-5.206247E-05
441.4177,-5.204928E-05
441.5177,-5.200597E-05
441.6177,-5.200973E-05
441.7177,-5.199655E-05
441.8177,-5.196264E-05
441.9178,-5.194193E-05
442.0178,-5.191179E-05
442.1178,-5.189955E-05
442.2178,-5.190426E-05
442.3178,-5.184492E-05
442.4178,-5.183269E-05
442.5178,-5.184304E-05
442.6178,-5.182421E-05
442.7178,-5.178936E-05
442.8178,-5.176017E-05
442.9178,-5.17404E-05
443.0178,-5.172438E-05
443.1178,-5.171403E-05
443.2178,-5.168295E-05
443.3178,-5.164151E-05
443.4178,-5.166694E-05
443.5179,-5.163492E-05
443.6179,-5.159819E-05
443.7179,-5.161138E-05
443.8179,-5.160008E-05
443.9179,-5.152851E-05
444.0179,-5.154263E-05
444.1179,-5.155393E-05
444.2179,-5.152945E-05
444.3179,-5.149178E-05
444.4179,-5.145693E-05
444.5179,-5.144375E-05
444.6179,-5.146164E-05
444.7179,-5.145128E-05
444.8179,-5.141644E-05
444.9179,-5.139949E-05
445.0179,-5.138442E-05
445.118,-5.135052E-05
445.218,-5.134675E-05
445.318,-5.132792E-05
445.418,-5.131285E-05
445.518,-5.127329E-05
445.618,-5.127612E-05
445.718,-5.124128E-05
445.818,-5.123375E-05
445.918,-5.121585E-05
446.018,-5.117159E-05
446.118,-5.115087E-05
446.218,-5.11584E-05
446.318,-5.11358E-05
446.418,-5.113109E-05
446.518,-5.11245E-05
446.618,-5.1068E-05
446.718,-5.106423E-05
446.8181,-5.108871E-05
446.9181,-5.102279E-05
447.0181,-5.098136E-05
447.1181,-5.098889E-05
447.2181,-5.098889E-05
447.3181,-5.0971E-05
447.4181,-5.095405E-05
447.5181,-5.090037E-05
447.6181,-5.087118E-05
447.7181,-5.090319E-05
447.8181,-5.085517E-05
447.9181,-5.08401E-05
448.0181,-5.084104E-05
448.1181,-5.07996E-05
448.2181,-5.075629E-05
448.3181,-5.079207E-05
448.4182,-5.076664E-05
448.5182,-5.073933E-05
448.6182,-5.074028E-05
448.7182,-5.072709E-05
448.8182,-5.068471E-05
448.9182,-5.070072E-05
449.0182,-5.066588E-05
449.1182,-5.064987E-05
449.2182,-5.066494E-05
449.3182,-5.066211E-05
449.4182,-5.061314E-05
449.5182,-5.062539E-05
449.6182,-5.061691E-05
449.7182,-5.057736E-05
449.8182,-5.055193E-05
449.9182,-5.056041E-05
450.0182,-5.054345E-05
450.1183,-5.051238E-05
450.2183,-5.048789E-05
450.3183,-5.044551E-05
450.4183,-5.043798E-05
450.5183,-5.043892E-05
450.6183,-5.040408E-05
450.7183,-5.037771E-05
450.8183,-5.035511E-05
450.9183,-5.031555E-05
451.0183,-5.031461E-05
451.1183,-5.031555E-05
451.2183,-5.028824E-05
451.3183,-5.025434E-05
451.4183,-5.024586E-05
451.5183,-5.02421E-05
451.6183,-5.022327E-05
451.7184,-5.020066E-05
451.8184,-5.017147E-05
451.9184,-5.015734E-05
452.0184,-5.015169E-05
452.1184,-5.011779E-05
452.2184,-5.009519E-05
452.3184,-5.011685E-05
452.4184,-5.007165E-05
452.5184,-5.004433E-05
452.6184,-5.007636E-05
452.7184,-5.004528E-05
452.8184,-5.000478E-05
452.9184,-4.99916E-05
453.0184,-4.997371E-05
453.1184,-4.993321E-05
453.2184,-4.996147E-05
453.3185,-4.991061E-05
453.4185,-4.987105E-05
453.5185,-4.986447E-05
453.6185,-4.988236E-05
453.7185,-4.984186E-05
453.8185,-4.982209E-05
453.9185,-4.979854E-05
454.0185,-4.976935E-05
454.1185,-4.977217E-05
454.2185,-4.976088E-05
454.3185,-4.971756E-05
454.4185,-4.969966E-05
454.5185,-4.970814E-05
454.6185,-4.969401E-05
454.7185,-4.967141E-05
454.8185,-4.965352E-05
454.9185,-4.963939E-05
455.0186,-4.962244E-05
455.1186,-4.959702E-05
455.2186,-4.958571E-05
455.3186,-4.957159E-05
455.4186,-4.955746E-05
455.5186,-4.954051E-05
455.6186,-4.951038E-05
455.7186,-4.952074E-05
455.8186,-4.94906E-05
455.9186,-4.947082E-05
456.0186,-4.945858E-05
456.1186,-4.944916E-05
456.2186,-4.943221E-05
456.3186,-4.944351E-05
456.4186,-4.935781E-05
456.5186,-4.936252E-05
456.6187,-4.940961E-05
456.7187,-4.938041E-05
456.8187,-4.932486E-05
456.9187,-4.930414E-05
457.0187,-4.933709E-05
457.1187,-4.929566E-05
457.2187,-4.927871E-05
457.3187,-4.926082E-05
457.4187,-4.926082E-05
457.5187,-4.926929E-05
457.6187,-4.923633E-05
457.7187,-4.921655E-05
457.8187,-4.919019E-05
457.9187,-4.917229E-05
458.0187,-4.917229E-05
458.1187,-4.916099E-05
458.2188,-4.913651E-05
458.3188,-4.911673E-05
458.4188,-4.910731E-05
458.5188,-4.911861E-05
458.6188,-4.90753E-05
458.7188,-4.905175E-05
458.8188,-4.904799E-05
458.9188,-4.902444E-05
459.0188,-4.90235E-05
459.1188,-4.899524E-05
459.2188,-4.895098E-05
459.3188,-4.894816E-05
459.4188,-4.896982E-05
459.5188,-4.89378E-05
459.6188,-4.890296E-05
459.7188,-4.890484E-05
459.8188,-4.886529E-05
459.9189,-4.886152E-05
460.0189,-4.885493E-05
460.1189,-4.883139E-05
460.2189,-4.879748E-05
460.3189,-4.880596E-05
460.4189,-4.879654E-05
460.5189,-4.87617E-05
460.6189,-4.876358E-05
460.7189,-4.873533E-05
460.8189,-4.871273E-05
460.9189,-4.871461E-05
461.0189,-4.867035E-05
461.1189,-4.866564E-05
461.2189,-4.866847E-05
461.3189,-4.861385E-05
461.4189,-4.859878E-05
461.519,-4.861385E-05
461.619,-4.861196E-05
461.719,-4.85969E-05
461.819,-4.857806E-05
461.919,-4.856487E-05
462.019,-4.851685E-05
462.119,-4.854604E-05
462.219,-4.851496E-05
462.319,-4.849424E-05
462.419,-4.847636E-05
462.519,-4.84594E-05
462.619,-4.845846E-05
462.719,-4.845469E-05
462.819,-4.844245E-05
462.919,-4.838783E-05
463.019,-4.837935E-05
463.119,-4.838029E-05
463.2191,-4.835204E-05
463.3191,-4.837182E-05
463.4191,-4.83172E-05
463.5191,-4.828236E-05
463.6191,-4.831626E-05
463.7191,-4.828895E-05
463.8191,-4.827953E-05
463.9191,-4.826164E-05
464.0191,-4.823433E-05
464.1191,-4.821079E-05
464.2191,-4.822209E-05
464.3191,-4.820514E-05
464.4191,-4.818536E-05
464.5191,-4.817406E-05
464.6191,-4.812979E-05
464.7191,-4.812132E-05
464.8192,-4.815145E-05
464.9192,-4.811567E-05
465.0192,-4.8078E-05
465.1192,-4.8078E-05
465.2192,-4.806294E-05
465.3192,-4.806387E-05
465.4192,-4.804693E-05
465.5192,-4.798383E-05
465.6192,-4.799418E-05
465.7192,-4.802903E-05
465.8192,-4.799795E-05
465.9192,-4.794616E-05
466.0192,-4.793203E-05
466.1192,-4.793486E-05
466.2192,-4.792544E-05
466.3192,-4.792073E-05
466.4193,-4.788871E-05
466.5193,-4.784728E-05
466.6193,-4.786423E-05
466.7193,-4.783975E-05
466.8193,-4.782185E-05
466.9193,-4.783315E-05
467.0193,-4.779642E-05
467.1193,-4.77823E-05
467.2193,-4.778418E-05
467.3193,-4.777006E-05
467.4193,-4.775311E-05
467.5193,-4.772108E-05
467.6193,-4.772768E-05
467.7193,-4.770602E-05
467.8193,-4.770319E-05
467.9193,-4.770131E-05
468.0193,-4.768436E-05
468.1194,-4.764575E-05
468.2194,-4.763633E-05
468.3194,-4.761467E-05
468.4194,-4.761373E-05
468.5194,-4.762691E-05
468.6194,-4.756382E-05
468.7194,-4.753933E-05
468.8194,-4.754404E-05
468.9194,-4.753556E-05
469.0194,-4.753274E-05
469.1194,-4.751014E-05
469.2194,-4.748094E-05
469.3194,-4.745081E-05
469.4194,-4.745834E-05
469.5194,-4.744892E-05
469.6194,-4.743009E-05
469.7195,-4.743009E-05
469.8195,-4.739242E-05
469.9195,-4.736323E-05
470.0195,-4.737641E-05
470.1195,-4.736511E-05
470.2195,-4.735663E-05
470.3195,-4.734534E-05
470.4195,-4.733121E-05
470.5195,-4.7286E-05
470.6195,-4.732932E-05
470.7195,-4.729919E-05
470.8195,-4.72521E-05
470.9195,-4.726623E-05
471.0195,-4.727565E-05
471.1195,-4.72295E-05
471.2195,-4.724928E-05
471.3195,-4.72069E-05
471.4196,-4.719842E-05
471.5196,-4.722103E-05
471.6196,-4.717582E-05
471.7196,-4.717111E-05
471.8196,-4.715134E-05
471.9196,-4.715416E-05
472.0196,-4.714663E-05
472.1196,-4.711555E-05
472.2196,-4.70986E-05
472.3196,-4.70986E-05
472.4196,-4.70986E-05
472.5196,-4.7076E-05
472.6196,-4.704492E-05
472.7196,-4.701102E-05
472.8196,-4.704775E-05
472.9196,-4.703174E-05
473.0197,-4.699972E-05
473.1197,-4.696393E-05
473.2197,-4.69338E-05
473.3197,-4.694886E-05
473.4197,-4.696017E-05
473.5197,-4.691967E-05
473.6197,-4.68933E-05
473.7197,-4.690649E-05
473.8197,-4.688671E-05
473.9197,-4.68594E-05
474.0197,-4.684245E-05
474.1197,-4.683586E-05
474.2197,-4.682079E-05
474.3197,-4.683774E-05
474.4197,-4.67963E-05
474.5197,-4.677935E-05
474.6198,-4.678783E-05
474.7198,-4.675016E-05
474.8198,-4.673415E-05
474.9198,-4.673697E-05
475.0198,-4.672002E-05
475.1198,-4.672379E-05
475.2198,-4.670496E-05
475.3198,-4.667482E-05
475.4198,-4.665881E-05
475.5198,-4.667859E-05
475.6198,-4.664657E-05
475.7198,-4.660137E-05
475.8198,-4.661267E-05
475.9198,-4.660796E-05
476.0198,-4.656652E-05
476.1198,-4.656558E-05
476.2198,-4.655145E-05
476.3199,-4.653921E-05
476.4199,-4.654298E-05
476.5199,-4.649401E-05
476.6199,-4.647235E-05
476.7199,-4.648836E-05
476.8199,-4.648083E-05
476.9199,-4.643939E-05
477.0199,-4.642149E-05
477.1199,-4.642056E-05
477.2199,-4.638665E-05
477.3199,-4.640925E-05
477.4199,-4.638477E-05
477.5199,-4.636311E-05
477.6199,-4.635745E-05
477.7199,-4.633297E-05
477.8199,-4.631979E-05
477.92,-4.631319E-05
478.02,-4.628494E-05
478.12,-4.629625E-05
478.22,-4.628306E-05
478.32,-4.627364E-05
478.42,-4.624539E-05
478.52,-4.626046E-05
478.62,-4.625763E-05
478.72,-4.623315E-05
478.82,-4.6187E-05
478.92,-4.621902E-05
479.02,-4.619548E-05
479.12,-4.614745E-05
479.22,-4.615499E-05
479.32,-4.613333E-05
479.42,-4.612202E-05
479.5201,-4.610978E-05
479.6201,-4.610884E-05
479.7201,-4.608342E-05
479.8201,-4.606929E-05
479.9201,-4.60401E-05
480.0201,-4.60335E-05
480.1201,-4.602409E-05
480.2201,-4.599772E-05
480.3201,-4.597229E-05
480.4201,-4.596569E-05
480.5201,-4.5977E-05
480.6201,-4.591955E-05
480.7201,-4.592709E-05
480.8201,-4.59318E-05
480.9201,-4.590449E-05
481.0201,-4.587811E-05
481.1201,-4.587435E-05
481.2202,-4.583857E-05
481.3202,-4.58687E-05
481.4202,-4.58508E-05
481.5202,-4.581691E-05
481.6202,-4.579901E-05
481.7202,-4.580184E-05
481.8202,-4.578583E-05
481.9202,-4.576323E-05
482.0202,-4.577453E-05
482.1202,-4.572838E-05
482.2202,-4.570201E-05
482.3202,-4.57265E-05
482.4202,-4.572461E-05
482.5202,-4.571237E-05
482.6202,-4.568412E-05
482.7202,-4.566529E-05
482.8203,-4.563609E-05
482.9203,-4.567377E-05
483.0203,-4.56295E-05
483.1203,-4.560125E-05
483.2203,-4.562103E-05
483.3203,-4.560501E-05
483.4203,-4.558806E-05
483.5203,-4.558524E-05
483.6203,-4.555604E-05
483.7203,-4.552591E-05
483.8203,-4.55438E-05
483.9203,-4.553344E-05
484.0203,-4.55099E-05
484.1203,-4.551743E-05
484.2203,-4.549012E-05
484.3203,-4.546564E-05
484.4203,-4.54647E-05
484.5204,-4.54468E-05
484.6204,-4.544869E-05
484.7204,-4.54308E-05
484.8204,-4.542703E-05
484.9204,-4.538465E-05
485.0204,-4.540349E-05
485.1204,-4.537335E-05
485.2204,-4.535922E-05
485.3204,-4.535922E-05
485.4204,-4.533756E-05
485.5204,-4.53225E-05
485.6204,-4.530554E-05
485.7204,-4.53112E-05
485.8204,-4.52933E-05
485.9204,-4.526694E-05
486.0204,-4.526599E-05
486.1205,-4.526882E-05
486.2205,-4.524716E-05
486.3205,-4.523868E-05
486.4205,-4.518783E-05
486.5205,-4.521984E-05
486.6205,-4.521608E-05
486.7205,-4.51624E-05
486.8205,-4.513792E-05
486.9205,-4.518123E-05
487.0205,-4.516146E-05
487.1205,-4.511814E-05
487.2205,-4.509742E-05
487.3205,-4.509083E-05
487.4205,-4.509742E-05
487.5205,-4.508141E-05
487.6205,-4.506823E-05
487.7206,-4.502773E-05
487.8206,-4.501455E-05
487.9206,-4.501738E-05
488.0206,-4.499007E-05
488.1206,-4.501172E-05
488.2206,-4.498347E-05
488.3206,-4.495428E-05
488.4206,-4.492791E-05
488.5206,-4.494109E-05
488.6206,-4.492603E-05
488.7206,-4.493356E-05
488.8206,-4.489683E-05
488.9206,-4.486575E-05
489.0206,-4.487612E-05
489.1206,-4.489589E-05
489.2206,-4.484409E-05
489.3206,-4.483374E-05
489.4207,-4.482903E-05
489.5207,-4.481584E-05
489.6207,-4.481396E-05
489.7207,-4.478759E-05
489.8207,-4.476311E-05
489.9207,-4.478006E-05
490.0207,-4.475369E-05
490.1207,-4.473297E-05
490.2207,-4.471696E-05
490.3207,-4.472544E-05
490.4207,-4.471414E-05
490.5207,-4.471507E-05
490.6207,-4.467176E-05
490.7207,-4.464162E-05
490.8207,-4.46435E-05
490.9207,-4.464162E-05
491.0208,-4.462373E-05
491.1208,-4.460019E-05
491.2208,-4.45823E-05
491.3208,-4.457005E-05
491.4208,-4.456911E-05
491.5208,-4.456911E-05
491.6208,-4.451731E-05
491.7208,-4.452579E-05
491.8208,-4.451166E-05
491.9208,-4.452202E-05
492.0208,-4.449E-05
492.1208,-4.44674E-05
492.2208,-4.447964E-05
492.3208,-4.447494E-05
492.4208,-4.445799E-05
492.5208,-4.440901E-05
492.6208,-4.442503E-05
492.7209,-4.444104E-05
492.8209,-4.440243E-05
492.9209,-4.439206E-05
493.0209,-4.438171E-05
493.1209,-4.437794E-05
493.2209,-4.435251E-05
493.3209,-4.434309E-05
493.4209,-4.432803E-05
493.5209,-4.432049E-05
493.6209,-4.43139E-05
493.7209,-4.429318E-05
493.8209,-4.425928E-05
493.9209,-4.427435E-05
494.0209,-4.429318E-05
494.1209,-4.424892E-05
494.2209,-4.422067E-05
494.321,-4.422726E-05
494.421,-4.421219E-05
494.521,-4.423291E-05
494.621,-4.416981E-05
494.721,-4.414627E-05
494.821,-4.420748E-05
494.921,-4.419336E-05
495.021,-4.414627E-05
495.121,-4.417076E-05
495.221,-4.413591E-05
495.321,-4.409918E-05
495.421,-4.412179E-05
495.521,-4.409918E-05
495.621,-4.409259E-05
495.721,-4.41086E-05
495.821,-4.406811E-05
495.9211,-4.404362E-05
496.0211,-4.405022E-05
496.1211,-4.404833E-05
496.2211,-4.399936E-05
496.3211,-4.399748E-05
496.4211,-4.400407E-05
496.5211,-4.397393E-05
496.6211,-4.395604E-05
496.7211,-4.394285E-05
496.8211,-4.395228E-05
496.9211,-4.393532E-05
497.0211,-4.391461E-05
497.1211,-4.389577E-05
497.2211,-4.389106E-05
497.3211,-4.390331E-05
497.4211,-4.389766E-05
497.5211,-4.386375E-05
497.6212,-4.387223E-05
497.7212,-4.38355E-05
497.8212,-4.383456E-05
497.9212,-4.383079E-05
498.0212,-4.378935E-05
498.1212,-4.380254E-05
498.2212,-4.379689E-05
498.3212,-4.376393E-05
498.4212,-4.375639E-05
498.5212,-4.375451E-05
498.6212,-4.375357E-05
498.7212,-4.371684E-05
498.8212,-4.373285E-05
498.9212,-4.369047E-05
499.0212,-4.369895E-05
499.1212,-4.370931E-05
499.2213,-4.366316E-05
499.3213,-4.362267E-05
499.4213,-4.367352E-05
499.5213,-4.366976E-05
499.6213,-4.363303E-05
499.7213,-4.361513E-05
499.8213,-4.36189E-05
499.9213,-4.361325E-05
500.0213,-4.361984E-05
500.1213,-4.358688E-05
500.2213,-4.35511E-05
500.3213,-4.359536E-05
500.4213,-4.355769E-05
500.5213,-4.35172E-05
500.6213,-4.352662E-05
500.7213,-4.351814E-05
500.8214,-4.350589E-05
500.9214,-4.349365E-05
501.0214,-4.348329E-05
501.1214,-4.347388E-05
501.2214,-4.347482E-05
501.3214,-4.343903E-05
501.4214,-4.343997E-05
501.5214,-4.342585E-05
501.6214,-4.343432E-05
501.7214,-4.342396E-05
501.8214,-4.338535E-05
501.9214,-4.33863E-05
502.0214,-4.336557E-05
502.1214,-4.335616E-05
502.2214,-4.33684E-05
502.3214,-4.334203E-05
502.4214,-4.334015E-05
502.5215,-4.332226E-05
502.6215,-4.329589E-05
502.7215,-4.330248E-05
502.8215,-4.330813E-05
502.9215,-4.326575E-05
503.0215,-4.32375E-05
503.1215,-4.325727E-05
503.2215,-4.32375E-05
503.3215,-4.324221E-05
503.4215,-4.324974E-05
503.5215,-4.319607E-05
503.6215,-4.317158E-05
503.7215,-4.320736E-05
503.8215,-4.319042E-05
503.9215,-4.317911E-05
504.0215,-4.315275E-05
504.1216,-4.312355E-05
504.2216,-4.311413E-05
504.3216,-4.316875E-05
504.4216,-4.312638E-05
504.5216,-4.310189E-05
504.6216,-4.312073E-05
504.7216,-4.309342E-05
504.8216,-4.306987E-05
504.9216,-4.307929E-05
505.0216,-4.307647E-05
505.1216,-4.305858E-05
505.2216,-4.305763E-05
505.3216,-4.30209E-05
505.4216,-4.302467E-05
505.5216,-4.30388E-05
505.6216,-4.303503E-05
505.7216,-4.29983E-05
505.8217,-4.299736E-05
505.9217,-4.298417E-05
506.0217,-4.295216E-05
506.1217,-4.293992E-05
506.2217,-4.295498E-05
506.3217,-4.295498E-05
506.4217,-4.292202E-05
506.5217,-4.289283E-05
506.6217,-4.288059E-05
506.7217,-4.291825E-05
506.8217,-4.287399E-05
506.9217,-4.283821E-05
507.0217,-4.284386E-05
507.1217,-4.287023E-05
507.2217,-4.281655E-05
507.3217,-4.279866E-05
507.4218,-4.28109E-05
507.5218,-4.285045E-05
507.6218,-4.282031E-05
507.7218,-4.280336E-05
507.8218,-4.280054E-05
507.9218,-4.278076E-05
508.0218,-4.278453E-05
508.1218,-4.275722E-05
508.2218,-4.273838E-05
508.3218,-4.273838E-05
508.4218,-4.272802E-05
508.5218,-4.272426E-05
508.6218,-4.270919E-05
508.7218,-4.266116E-05
508.8218,-4.268847E-05
508.9218,-4.27026E-05
509.0219,-4.265834E-05
509.1219,-4.263385E-05
509.2219,-4.262914E-05
509.3219,-4.26122E-05
509.4219,-4.261973E-05
509.5219,-4.261596E-05
509.6219,-4.25764E-05
509.7219,-4.256322E-05
509.8219,-4.257358E-05
509.9219,-4.254251E-05
510.0219,-4.255004E-05
510.1219,-4.254627E-05
510.2219,-4.251519E-05
510.3219,-4.252838E-05
510.4219,-4.252649E-05
510.5219,-4.246905E-05
510.6219,-4.248129E-05
510.722,-4.247847E-05
510.822,-4.248223E-05
510.922,-4.245869E-05
511.022,-4.244833E-05
511.122,-4.244174E-05
511.222,-4.239371E-05
511.322,-4.241914E-05
511.422,-4.240501E-05
511.522,-4.239748E-05
511.622,-4.238712E-05
511.722,-4.235133E-05
511.822,-4.235321E-05
511.922,-4.236923E-05
512.022,-4.235228E-05
512.122,-4.231743E-05
512.222,-4.23325E-05
512.322,-4.233438E-05
512.4219,-4.232308E-05
512.5219,-4.228447E-05
512.6219,-4.228635E-05
512.7219,-4.228164E-05
512.8218,-4.227317E-05
512.9218,-4.224209E-05
513.0218,-4.223644E-05
513.1218,-4.226846E-05
513.2217,-4.224209E-05
513.3217,-4.219407E-05
513.4217,-4.22355E-05
513.5217,-4.222702E-05
513.6216,-4.21724E-05
513.7216,-4.217523E-05
513.8216,-4.219783E-05
513.9216,-4.219124E-05
514.0215,-4.217052E-05
514.1215,-4.216299E-05
514.2215,-4.215357E-05
514.3215,-4.212908E-05
514.4214,-4.212814E-05
514.5214,-4.219783E-05
514.6214,-4.212344E-05
514.7214,-4.212344E-05
514.8214,-4.210083E-05
514.9213,-4.207352E-05
515.0213,-4.20754E-05
515.1213,-4.203491E-05
515.2213,-4.205375E-05
515.3212,-4.205469E-05
515.4212,-4.202455E-05
515.5212,-4.199536E-05
515.6212,-4.201513E-05
515.7211,-4.200383E-05
515.8211,-4.196899E-05
515.9211,-4.19624E-05
516.0211,-4.194639E-05
516.121,-4.195298E-05
516.221,-4.195486E-05
516.321,-4.19172E-05
516.421,-4.190213E-05
516.5209,-4.189554E-05
516.6209,-4.189459E-05
516.7209,-4.187482E-05
516.8209,-4.189648E-05
516.9208,-4.184751E-05
517.0208,-4.18428E-05
517.1208,-4.183338E-05
517.2208,-4.179948E-05
517.3207,-4.181925E-05
517.4207,-4.182113E-05
517.5207,-4.181831E-05
517.6207,-4.177688E-05
517.7206,-4.17684E-05
517.8206,-4.176463E-05
517.9206,-4.173262E-05
518.0206,-4.174203E-05
518.1205,-4.173262E-05
518.2205,-4.171755E-05
518.3205,-4.171378E-05
518.4205,-4.169777E-05
518.5204,-4.167329E-05
518.6204,-4.170436E-05
518.7204,-4.169024E-05
518.8204,-4.165727E-05
518.9203,-4.16422E-05
519.0203,-4.163279E-05
519.1203,-4.161679E-05
519.2203,-4.163467E-05
519.3203,-4.162526E-05
519.4202,-4.158194E-05
519.5202,-4.161301E-05
519.6202,-4.159983E-05
519.7202,-4.159606E-05
519.8201,-4.155651E-05
519.9201,-4.155651E-05
520.0201,-4.153109E-05
520.1201,-4.157063E-05
520.22,-4.153014E-05
520.32,-4.148117E-05
520.42,-4.151131E-05
520.52,-4.153579E-05
520.6199,-4.151131E-05
520.7199,-4.148117E-05
520.8199,-4.149436E-05
520.9199,-4.148494E-05
521.0198,-4.147741E-05
521.1198,-4.146045E-05
521.2198,-4.144633E-05
521.3198,-4.144727E-05
521.4197,-4.14614E-05
521.5197,-4.14162E-05
521.6197,-4.138323E-05
521.7197,-4.140301E-05
521.8196,-4.140583E-05
521.9196,-4.141148E-05
522.0196,-4.138888E-05
522.1196,-4.136252E-05
522.2195,-4.135969E-05
522.3195,-4.135498E-05
522.4195,-4.134933E-05
522.5195,-4.132673E-05
522.6194,-4.132485E-05
522.7194,-4.130036E-05
522.8194,-4.129471E-05
522.9194,-4.130224E-05
523.0193,-4.129283E-05
523.1193,-4.124291E-05
523.2193,-4.125045E-05
523.3193,-4.121278E-05
523.4193,-4.122597E-05
523.5192,-4.125139E-05
523.6192,-4.121655E-05
523.7192,-4.119771E-05
523.8192,-4.117982E-05
523.9191,-4.116193E-05
524.0191,-4.117793E-05
524.1191,-4.116852E-05
524.2191,-4.11478E-05
524.319,-4.112708E-05
524.419,-4.113555E-05
524.519,-4.110636E-05
524.619,-4.111484E-05
524.7189,-4.111107E-05
524.8189,-4.108847E-05
524.9189,-4.107905E-05
525.0189,-4.10734E-05
525.1188,-4.10508E-05
525.2188,-4.10395E-05
525.3188,-4.103573E-05
525.4188,-4.105739E-05
525.5187,-4.099712E-05
525.6187,-4.103103E-05
525.7187,-4.101219E-05
525.8187,-4.099053E-05
525.9186,-4.098488E-05
526.0186,-4.099053E-05
526.1186,-4.097829E-05
526.2186,-4.096134E-05
526.3185,-4.093309E-05
526.4185,-4.091331E-05
526.5185,-4.097075E-05
526.6185,-4.095192E-05
526.7184,-4.090013E-05
526.8184,-4.089636E-05
526.9184,-4.090295E-05
527.0184,-4.090013E-05
527.1183,-4.086905E-05
527.2183,-4.086716E-05
527.3183,-4.083985E-05
527.4183,-4.087093E-05
527.5182,-4.081914E-05
527.6182,-4.081254E-05
527.7182,-4.080972E-05
527.8182,-4.080125E-05
527.9182,-4.079371E-05
528.0181,-4.080219E-05
528.1181,-4.07777E-05
528.2181,-4.073721E-05
528.3181,-4.076169E-05
528.418,-4.076828E-05
528.518,-4.073156E-05
528.618,-4.071837E-05
528.718,-4.072213E-05
528.8179,-4.07099E-05
528.9179,-4.070895E-05
529.0179,-4.070801E-05
529.1179,-4.067882E-05
529.2178,-4.065151E-05
529.3178,-4.066657E-05
529.4178,-4.06289E-05
529.5178,-4.065056E-05
529.6177,-4.065056E-05
529.7177,-4.060913E-05
529.8177,-4.062043E-05
529.9177,-4.059971E-05
530.0176,-4.058935E-05
530.1176,-4.058841E-05
530.2176,-4.057994E-05
530.3176,-4.056863E-05
530.4175,-4.05611E-05
530.5175,-4.05724E-05
530.6175,-4.056016E-05
530.7175,-4.053567E-05
530.8174,-4.05385E-05
530.9174,-4.052908E-05
531.0174,-4.051495E-05
531.1174,-4.051213E-05
531.2173,-4.04754E-05
531.3173,-4.04594E-05
531.4173,-4.050554E-05
531.5173,-4.050366E-05
531.6172,-4.047258E-05
531.7172,-4.044338E-05
531.8172,-4.04415E-05
531.9172,-4.043208E-05
532.0172,-4.044903E-05
532.1171,-4.041231E-05
532.2171,-4.039159E-05
532.3171,-4.040195E-05
532.4171,-4.039912E-05
532.517,-4.0385E-05
532.617,-4.040195E-05
532.717,-4.036993E-05
532.817,-4.03558E-05
532.9169,-4.035486E-05
533.0169,-4.03511E-05
533.1169,-4.033697E-05
533.2169,-4.033414E-05
533.3168,-4.030683E-05
533.4168,-4.032661E-05
533.5168,-4.032567E-05
533.6168,-4.029742E-05
533.7167,-4.025975E-05
533.8167,-4.027105E-05
533.9167,-4.027764E-05
534.0167,-4.026728E-05
534.1166,-4.02362E-05
534.2166,-4.023056E-05
534.3166,-4.022679E-05
534.4166,-4.022113E-05
534.5165,-4.02023E-05
534.6165,-4.019477E-05
534.7165,-4.020607E-05
534.8165,-4.021172E-05
534.9164,-4.014392E-05
535.0164,-4.019571E-05
535.1164,-4.019288E-05
535.2164,-4.019571E-05
535.3163,-4.015522E-05
535.4163,-4.016181E-05
535.5163,-4.014392E-05
535.6163,-4.013638E-05
535.7162,-4.014862E-05
535.8162,-4.010154E-05
535.9162,-4.008082E-05
536.0162,-4.012414E-05
536.1161,-4.010436E-05
536.2161,-4.007517E-05
536.3161,-4.006763E-05
536.4161,-4.006669E-05
536.5161,-4.006293E-05
536.616,-4.00601E-05
536.716,-4.002525E-05
536.816,-4.00196E-05
536.916,-4.006293E-05
537.0159,-4.002055E-05
537.1159,-3.998099E-05
537.2159,-4.000642E-05
537.3159,-4.002337E-05
537.4158,-3.998382E-05
537.5158,-3.997629E-05
537.6158,-3.997252E-05
537.7158,-3.994521E-05
537.8157,-3.994332E-05
537.9157,-3.994238E-05
538.0157,-3.992449E-05
538.1157,-3.993956E-05
538.2156,-3.989341E-05
538.3156,-3.988965E-05
538.4156,-3.989247E-05
538.5156,-3.988023E-05
538.6155,-3.98614E-05
538.7155,-3.985292E-05
538.8155,-3.987081E-05
538.9155,-3.983785E-05
539.0154,-3.983409E-05
539.1154,-3.983691E-05
539.2154,-3.983314E-05
539.3154,-3.982843E-05
539.4153,-3.981336E-05
539.5153,-3.981054E-05
539.6153,-3.979359E-05
539.7153,-3.981242E-05
539.8152,-3.980113E-05
539.9152,-3.97578E-05
540.0152,-3.975592E-05
540.1152,-3.974839E-05
540.2151,-3.975875E-05
540.3151,-3.97578E-05
540.4151,-3.969565E-05
540.5151,-3.973049E-05
540.6151,-3.97352E-05
540.715,-3.970978E-05
540.815,-3.97013E-05
540.915,-3.967211E-05
541.015,-3.966928E-05
541.1149,-3.965704E-05
541.2149,-3.967211E-05
541.3149,-3.965139E-05
541.4149,-3.963161E-05
541.5148,-3.964291E-05
541.6148,-3.960901E-05
541.7148,-3.961184E-05
541.8148,-3.960712E-05
541.9147,-3.959771E-05
542.0147,-3.957982E-05
542.1147,-3.959206E-05
542.2147,-3.957793E-05
542.3146,-3.95704E-05
542.4146,-3.956664E-05
542.5146,-3.954309E-05
542.6146,-3.954686E-05
542.7145,-3.955157E-05
542.8145,-3.952237E-05
542.9145,-3.949789E-05
543.0145,-3.950918E-05
543.1144,-3.95252E-05
543.2144,-3.949035E-05
543.3144,-3.949035E-05
543.4144,-3.948753E-05
543.5143,-3.946493E-05
543.6143,-3.946869E-05
543.7143,-3.945834E-05
543.8143,-3.947622E-05
543.9142,-3.946493E-05
544.0142,-3.942443E-05
544.1142,-3.942255E-05
544.2142,-3.943667E-05
544.3141,-3.943761E-05
544.4141,-3.94216E-05
544.5141,-3.939995E-05
544.6141,-3.939618E-05
544.7141,-3.937452E-05
544.814,-3.940277E-05
544.914,-3.937923E-05
545.014,-3.935757E-05
545.114,-3.935945E-05
545.2139,-3.935945E-05
545.3139,-3.935098E-05
545.4139,-3.933873E-05
545.5139,-3.931802E-05
545.6138,-3.932367E-05
545.7138,-3.933497E-05
545.8138,-3.930295E-05
545.9138,-3.927941E-05
546.0137,-3.93086E-05
546.1137,-3.926998E-05
546.2137,-3.924738E-05
546.3137,-3.92747E-05
546.4136,-3.926151E-05
546.5136,-3.925021E-05
546.6136,-3.92229E-05
546.7136,-3.923985E-05
546.8135,-3.920972E-05
546.9135,-3.923044E-05
547.0135,-3.92229E-05
547.1135,-3.917581E-05
547.2134,-3.919841E-05
547.3134,-3.919465E-05
547.4134,-3.919841E-05
547.5134,-3.916546E-05
547.6133,-3.91485E-05
547.7133,-3.913532E-05
547.8133,-3.915039E-05
547.9133,-3.91664E-05
548.0132,-3.910801E-05
548.1132,-3.911931E-05
548.2132,-3.912214E-05
548.3132,-3.91146E-05
548.4131,-3.910895E-05
548.5131,-3.909859E-05
548.6131,-3.909765E-05
548.7131,-3.907222E-05
548.813,-3.907693E-05
548.913,-3.907034E-05
549.013,-3.906845E-05
549.113,-3.904868E-05
549.213,-3.904868E-05
549.3129,-3.903361E-05
549.4129,-3.905245E-05
549.5129,-3.901572E-05
549.6129,-3.900159E-05
549.7128,-3.900724E-05
549.8128,-3.898747E-05
549.9128,-3.899877E-05
550.0128,-3.900159E-05
550.1127,-3.896863E-05
550.2127,-3.895545E-05
550.3127,-3.896581E-05
550.4127,-3.893473E-05
550.5126,-3.895074E-05
550.6126,-3.895639E-05
550.7126,-3.890365E-05
550.8126,-3.890459E-05
550.9125,-3.892531E-05
551.0125,-3.891401E-05
551.1125,-3.890365E-05
551.2125,-3.887917E-05
551.3124,-3.885845E-05
551.4124,-3.887917E-05
551.5124,-3.888859E-05
551.6124,-3.884433E-05
551.7123,-3.881137E-05
551.8123,-3.88641E-05
551.9123,-3.887069E-05
552.0123,-3.885468E-05
552.1122,-3.884244E-05
552.2122,-3.883302E-05
552.3122,-3.880383E-05
552.4122,-3.884056E-05
552.5121,-3.882455E-05
552.6121,-3.878123E-05
552.7121,-3.878876E-05
552.8121,-3.875769E-05
552.912,-3.876804E-05
553.012,-3.875674E-05
553.112,-3.876522E-05
553.212,-3.873603E-05
553.312,-3.872473E-05
553.4119,-3.872095E-05
553.5119,-3.873791E-05
553.6119,-3.872849E-05
553.7119,-3.86927E-05
553.8118,-3.867764E-05
553.9118,-3.867764E-05
554.0118,-3.868894E-05
554.1118,-3.867199E-05
554.2117,-3.867293E-05
554.3117,-3.86541E-05
554.4117,-3.865504E-05
554.5117,-3.865975E-05
554.6116,-3.86475E-05
554.7116,-3.862302E-05
554.8116,-3.862302E-05
554.9116,-3.861266E-05
555.0115,-3.859853E-05
555.1115,-3.861454E-05
555.2115,-3.860513E-05
555.3115,-3.857687E-05
555.4114,-3.856557E-05
555.5114,-3.858818E-05
555.6114,-3.857499E-05
555.7114,-3.856275E-05
555.8113,-3.853826E-05
555.9113,-3.852979E-05
556.0113,-3.853261E-05
556.1113,-3.852696E-05
556.2112,-3.851284E-05
556.3112,-3.849118E-05
556.4112,-3.851472E-05
556.5112,-3.850624E-05
556.6111,-3.846857E-05
556.7111,-3.847423E-05
556.8111,-3.845351E-05
556.9111,-3.845351E-05
557.011,-3.847234E-05
557.111,-3.845727E-05
557.211,-3.843844E-05
557.311,-3.844126E-05
557.4109,-3.845068E-05
557.5109,-3.840171E-05
557.6109,-3.841301E-05
557.7109,-3.840642E-05
557.8109,-3.837722E-05
557.9108,-3.838665E-05
558.0108,-3.839888E-05
558.1108,-3.838287E-05
558.2108,-3.835274E-05
558.3107,-3.835934E-05
558.4107,-3.833673E-05
558.5107,-3.839324E-05
558.6107,-3.834898E-05
558.7106,-3.830754E-05
558.8106,-3.832261E-05
558.9106,-3.83631E-05
559.0106,-3.830095E-05
559.1105,-3.827081E-05
559.2105,-3.828493E-05
559.3105,-3.829624E-05
559.4105,-3.829435E-05
559.5104,-3.825857E-05
559.6104,-3.826704E-05
559.7104,-3.825857E-05
559.8104,-3.827552E-05
559.9103,-3.822467E-05
560.0103,-3.823032E-05
560.1103,-3.823691E-05
560.2103,-3.820772E-05
560.3102,-3.822937E-05
560.4102,-3.821242E-05
560.5102,-3.817381E-05
560.6102,-3.820206E-05
560.7101,-3.819641E-05
560.8101,-3.817381E-05
560.9101,-3.816251E-05
561.0101,-3.817475E-05
561.11,-3.81465E-05
561.21,-3.81465E-05
561.31,-3.817758E-05
561.41,-3.813143E-05
561.5099,-3.810506E-05
561.6099,-3.812484E-05
561.7099,-3.811542E-05
561.8099,-3.812767E-05
561.9099,-3.812107E-05
562.0098,-3.807493E-05
562.1098,-3.80495E-05
562.2098,-3.809941E-05
562.3098,-3.807305E-05
562.4097,-3.806458E-05
562.5097,-3.805703E-05
562.6097,-3.801937E-05
562.7097,-3.801842E-05
562.8096,-3.80495E-05
562.9096,-3.801937E-05
563.0096,-3.801089E-05
563.1096,-3.800807E-05
563.2095,-3.7993E-05
563.3095,-3.800995E-05
563.4095,-3.800618E-05
563.5095,-3.79817E-05
563.6094,-3.794403E-05
563.7094,-3.797699E-05
563.8094,-3.795721E-05
563.9094,-3.794497E-05
564.0093,-3.797228E-05
564.1093,-3.79252E-05
564.2093,-3.791013E-05
564.3093,-3.795345E-05
564.4092,-3.791766E-05
564.5092,-3.791013E-05
564.6092,-3.792237E-05
564.7092,-3.790542E-05
564.8091,-3.789506E-05
564.9091,-3.790636E-05
565.0091,-3.789035E-05
565.1091,-3.786492E-05
565.209,-3.788753E-05
565.309,-3.788753E-05
565.409,-3.786963E-05
565.509,-3.785927E-05
565.6089,-3.785457E-05
565.7089,-3.785551E-05
565.8089,-3.78508E-05
565.9089,-3.783384E-05
566.0089,-3.782254E-05
566.1088,-3.782631E-05
566.2088,-3.782443E-05
566.3088,-3.780371E-05
566.4088,-3.777828E-05
566.5087,-3.779994E-05
566.6087,-3.776039E-05
566.7087,-3.77764E-05
566.8087,-3.778582E-05
566.9086,-3.774156E-05
567.0086,-3.774721E-05
567.1086,-3.773214E-05
567.2086,-3.772272E-05
567.3085,-3.77425E-05
567.4085,-3.773779E-05
567.5085,-3.770577E-05
567.6085,-3.770201E-05
567.7084,-3.77199E-05
567.8084,-3.77133E-05
567.9084,-3.770766E-05
568.0084,-3.768317E-05
568.1083,-3.765491E-05
568.2083,-3.765491E-05
568.3083,-3.76907E-05
568.4083,-3.765963E-05
568.5082,-3.764173E-05
568.6082,-3.764738E-05
568.7082,-3.762855E-05
568.8082,-3.763326E-05
568.9081,-3.764173E-05
569.0081,-3.761819E-05
569.1081,-3.758146E-05
569.2081,-3.76003E-05
569.308,-3.758617E-05
569.408,-3.759747E-05
569.508,-3.757205E-05
569.608,-3.755792E-05
569.7079,-3.756639E-05
569.8079,-3.756546E-05
569.9079,-3.754285E-05
570.0079,-3.755039E-05
570.1078,-3.755133E-05
570.2078,-3.753155E-05
570.3078,-3.75259E-05
570.4078,-3.751743E-05
570.5078,-3.751837E-05
570.6077,-3.751177E-05
570.7077,-3.750424E-05
570.8077,-3.749294E-05
570.9077,-3.746092E-05
571.0076,-3.749859E-05
571.1076,-3.7492E-05
571.2076,-3.745527E-05
571.3076,-3.746375E-05
571.4075,-3.744491E-05
571.5075,-3.743079E-05
571.6075,-3.744303E-05
571.7075,-3.743549E-05
571.8074,-3.741478E-05
571.9074,-3.743832E-05
572.0074,-3.741854E-05
572.1074,-3.739406E-05
572.2073,-3.739971E-05
572.3073,-3.739688E-05
572.4073,-3.737899E-05
572.5073,-3.738276E-05
572.6072,-3.739971E-05
572.7072,-3.735545E-05
572.8072,-3.73611E-05
572.9072,-3.737711E-05
573.0071,-3.735074E-05
573.1071,-3.73498E-05
573.2071,-3.733567E-05
573.3071,-3.732155E-05
573.407,-3.733567E-05
573.507,-3.733662E-05
573.607,-3.729518E-05
573.707,-3.729706E-05
573.8069,-3.731966E-05
573.9069,-3.729235E-05
574.0069,-3.729612E-05
574.1069,-3.727917E-05
574.2068,-3.728199E-05
574.3068,-3.726881E-05
574.4068,-3.728105E-05
574.5068,-3.726033E-05
574.6068,-3.72528E-05
574.7067,-3.725845E-05
574.8067,-3.723585E-05
574.9067,-3.723396E-05
575.0067,-3.724244E-05
575.1066,-3.721795E-05
575.2066,-3.719252E-05
575.3066,-3.723679E-05
575.4066,-3.722549E-05
575.5065,-3.720383E-05
575.6065,-3.717652E-05
575.7065,-3.718311E-05
575.8065,-3.717652E-05
575.9064,-3.71963E-05
576.0064,-3.717935E-05
576.1064,-3.714261E-05
576.2064,-3.714826E-05
576.3063,-3.714826E-05
576.4063,-3.711437E-05
576.5063,-3.713979E-05
576.6063,-3.711907E-05
576.7062,-3.709553E-05
576.8062,-3.710118E-05
576.9062,-3.711437E-05
577.0062,-3.709082E-05
577.1061,-3.710306E-05
577.2061,-3.706351E-05
577.3061,-3.707104E-05
577.4061,-3.710024E-05
577.506,-3.707858E-05
577.606,-3.703432E-05
577.706,-3.703149E-05
577.806,-3.703903E-05
577.9059,-3.702584E-05
578.0059,-3.703714E-05
578.1059,-3.700136E-05
578.2059,-3.700606E-05
578.3058,-3.700512E-05
578.4058,-3.700984E-05
578.5058,-3.6991E-05
578.6058,-3.698064E-05
578.7057,-3.696934E-05
578.8057,-3.69797E-05
578.9057,-3.696651E-05
579.0057,-3.697687E-05
579.1057,-3.696651E-05
579.2056,-3.696275E-05
579.3056,-3.695521E-05
579.4056,-3.695238E-05
579.5056,-3.696557E-05
579.6055,-3.69392E-05
579.7055,-3.689965E-05
579.8055,-3.693355E-05
579.9055,-3.692978E-05
580.0054,-3.6894E-05
580.1054,-3.686481E-05
580.2054,-3.689211E-05
580.3054,-3.689117E-05
580.4053,-3.688176E-05
580.5053,-3.689777E-05
580.6053,-3.684503E-05
580.7053,-3.68714E-05
580.8052,-3.689306E-05
580.9052,-3.684503E-05
581.0052,-3.683938E-05
581.1052,-3.685822E-05
581.2051,-3.687516E-05
581.3051,-3.68375E-05
581.4051,-3.683561E-05
581.5051,-3.683279E-05
581.605,-3.683938E-05
581.705,-3.682902E-05
581.805,-3.680642E-05
581.905,-3.678287E-05
582.0049,-3.681678E-05
582.1049,-3.68149E-05
582.2049,-3.677911E-05
582.3049,-3.677911E-05
582.4048,-3.679041E-05
582.5048,-3.678475E-05
582.6048,-3.677911E-05
582.7048,-3.676875E-05
582.8047,-3.674709E-05
582.9047,-3.676781E-05
583.0047,-3.676122E-05
583.1047,-3.674238E-05
583.2047,-3.671413E-05
583.3046,-3.672166E-05
583.4046,-3.671224E-05
583.5046,-3.673484E-05
583.6046,-3.672449E-05
583.7045,-3.66708E-05
583.8045,-3.670377E-05
583.9045,-3.670942E-05
584.0045,-3.668965E-05
584.1044,-3.666892E-05
584.2044,-3.669247E-05
584.3044,-3.664821E-05
584.4044,-3.666327E-05
584.5043,-3.667834E-05
584.6043,-3.66209E-05
584.7043,-3.660866E-05
584.8043,-3.665762E-05
584.9042,-3.662561E-05
585.0042,-3.660112E-05
585.1042,-3.663502E-05
585.2042,-3.663691E-05
585.3041,-3.660301E-05
585.4041,-3.658605E-05
585.5041,-3.659547E-05
585.6041,-3.660866E-05
585.704,-3.661148E-05
585.804,-3.656816E-05
585.904,-3.655968E-05
586.004,-3.657758E-05
586.1039,-3.657098E-05
586.2039,-3.655309E-05
586.3039,-3.655497E-05
586.4039,-3.65644E-05
586.5038,-3.654179E-05
586.6038,-3.654179E-05
586.7038,-3.651542E-05
586.8038,-3.651542E-05
586.9037,-3.651542E-05
587.0037,-3.654085E-05
587.1037,-3.648058E-05
587.2037,-3.649377E-05
587.3036,-3.651637E-05
587.4036,-3.648152E-05
587.5036,-3.64608E-05
587.6036,-3.646551E-05
587.7036,-3.648434E-05
587.8035,-3.649377E-05
587.9035,-3.648058E-05
588.0035,-3.645044E-05
588.1035,-3.644856E-05
588.2034,-3.649659E-05
588.3034,-3.644856E-05
588.4034,-3.642784E-05
588.5034,-3.644573E-05
588.6033,-3.645704E-05
588.7033,-3.644196E-05
588.8033,-3.642596E-05
588.9033,-3.640524E-05
589.0032,-3.641654E-05
589.1032,-3.641466E-05
589.2032,-3.641089E-05
589.3032,-3.639582E-05
589.4031,-3.641183E-05
589.5031,-3.637982E-05
589.6031,-3.635345E-05
589.7031,-3.637228E-05
589.803,-3.635815E-05
589.903,-3.635251E-05
590.003,-3.635533E-05
590.103,-3.634685E-05
590.2029,-3.634403E-05
590.3029,-3.633367E-05
590.4029,-3.633932E-05
590.5029,-3.631578E-05
590.6028,-3.632425E-05
590.7028,-3.629035E-05
590.8028,-3.626775E-05
590.9028,-3.632708E-05
591.0027,-3.629977E-05
591.1027,-3.627622E-05
591.2027,-3.627905E-05
591.3027,-3.627434E-05
591.4026,-3.625833E-05
591.5026,-3.628093E-05
591.6026,-3.624609E-05
591.7026,-3.624703E-05
591.8026,-3.62555E-05
591.9025,-3.622349E-05
592.0025,-3.623196E-05
592.1025,-3.626398E-05
592.2025,-3.621972E-05
592.3024,-3.620936E-05
592.4024,-3.621689E-05
592.5024,-3.621595E-05
592.6024,-3.617734E-05
592.7023,-3.618299E-05
592.8023,-3.618016E-05
592.9023,-3.618111E-05
593.0023,-3.616887E-05
593.1022,-3.616887E-05
593.2022,-3.616981E-05
593.3022,-3.615285E-05
593.4022,-3.614626E-05
593.5021,-3.612555E-05
593.6021,-3.615097E-05
593.7021,-3.615191E-05
593.8021,-3.610483E-05
593.902,-3.612743E-05
594.002,-3.615285E-05
594.102,-3.612555E-05
594.202,-3.608505E-05
594.3019,-3.610483E-05
594.4019,-3.612178E-05
594.5019,-3.610577E-05
594.6019,-3.608882E-05
594.7018,-3.607469E-05
594.8018,-3.609353E-05
594.9018,-3.608505E-05
595.0018,-3.607187E-05
595.1017,-3.606999E-05
595.2017,-3.608694E-05
595.3017,-3.608694E-05
595.4017,-3.60455E-05
595.5016,-3.60568E-05
595.6016,-3.603231E-05
595.7016,-3.603231E-05
595.8016,-3.604079E-05
595.9016,-3.602949E-05
596.0015,-3.600312E-05
596.1015,-3.603514E-05
596.2015,-3.601913E-05
596.3015,-3.598805E-05
596.4014,-3.598994E-05
596.5014,-3.598617E-05
596.6014,-3.598523E-05
596.7014,-3.597487E-05
596.8013,-3.596827E-05
596.9013,-3.59598E-05
597.0013,-3.594191E-05
597.1013,-3.597675E-05
597.2012,-3.594285E-05
597.3012,-3.595886E-05
597.4012,-3.592778E-05
597.5012,-3.59146E-05
597.6011,-3.593249E-05
597.7011,-3.592873E-05
597.8011,-3.593531E-05
597.9011,-3.590048E-05
598.001,-3.590989E-05
598.101,-3.587693E-05
598.201,-3.588446E-05
598.301,-3.59033E-05
598.4009,-3.587976E-05
598.5009,-3.58807E-05
598.6009,-3.587881E-05
598.7009,-3.585715E-05
598.8008,-3.583173E-05
598.9008,-3.586186E-05
599.0008,-3.584962E-05
599.1008,-3.584585E-05
599.2007,-3.583267E-05
599.3007,-3.579594E-05
599.4007,-3.582231E-05
599.5007,-3.583079E-05
599.6006,-3.580065E-05
599.7006,-3.577805E-05
599.8006,-3.578464E-05
599.9006,-3.580724E-05
600.0005,-3.579312E-05
