EXPID. 0631
[电化学]: i-t : @ 0(V) X 600(sec)
起始电位 (V),0
静置时间 (秒),0
运行时间 (秒),600
记录间隔,0.1
电解液 信息:
HNO3,0.4
0.1,-0.01005814
0.2,-0.01005814
0.3,-0.01005814
0.4,-0.01005814
0.5,-0.01005814
0.6,-0.01005814
0.7,-0.01005814
0.8000001,-0.01005814
0.9000001,-0.01005814
1,0.003420985
1.1,0.00459331
1.2,0.0004926576
1.3,-0.002592738
1.4,-0.003951279
1.5,-0.004247753
1.6,-0.004270832
1.7,-0.004254658
1.8,-0.004215294
1.9,-0.004156678
2,-0.004069732
2.1,-0.003964113
2.2,-0.003853663
2.3,-0.003748991
2.4,-0.003638042
2.5,-0.003537424
2.6,-0.003440785
2.7,-0.003346007
2.799999,-0.003257032
2.899999,-0.003171188
2.999999,-0.003084019
3.099999,-0.002998573
3.199999,-0.002910775
3.299999,-0.00281954
3.399999,-0.002735221
3.499999,-0.002651717
3.599999,-0.002570579
3.699999,-0.002501339
3.799999,-0.002432677
3.899998,-0.002369415
3.999998,-0.002314109
4.099998,-0.002261776
4.199998,-0.002212743
4.299998,-0.002168707
4.399998,-0.002126578
4.499998,-0.002087974
4.599998,-0.002051631
4.699998,-0.00201694
4.799998,-0.001984976
4.899998,-0.001955333
4.999998,-0.001925927
5.099998,-0.001898392
5.199997,-0.001873397
5.299997,-0.001848252
5.399997,-0.001824285
5.499997,-0.001801924
5.599997,-0.001780318
5.699997,-0.001759708
5.799997,-0.001739982
5.899997,-0.001720801
5.999997,-0.001702553
6.099997,-0.001685033
6.199996,-0.00166817
6.299996,-0.00165184
6.399996,-0.001636247
6.499996,-0.001620798
6.599996,-0.001606382
6.699996,-0.001592294
6.799996,-0.001578221
6.899996,-0.001565185
6.999996,-0.001552406
7.099996,-0.001539477
7.199996,-0.001527432
7.299995,-0.001515702
7.399995,-0.001503906
7.499995,-0.001492459
7.599995,-0.001481783
7.699995,-0.001470734
7.799995,-0.001460585
7.899995,-0.001450501
7.999995,-0.001440063
8.099995,-0.001430567
8.199995,-0.001421188
8.299995,-0.001411728
8.399996,-0.001402809
8.499996,-0.001394213
8.599997,-0.001385462
8.699997,-0.00137696
8.799997,-0.001368956
8.899998,-0.0013604
8.999998,-0.001352967
9.099998,-0.001344978
9.199999,-0.001337039
9.299999,-0.001329789
9.4,-0.001322341
9.5,-0.0013149
9.6,-0.001307956
9.700001,-0.001300916
9.800001,-0.001294002
9.900002,-0.001287394
10,-0.001280783
10.1,-0.00127423
10.2,-0.001267894
10.3,-0.001261228
10.4,-0.00125522
10.5,-0.001249119
10.6,-0.001242977
10.7,-0.001237061
10.8,-0.001231321
10.90001,-0.001225269
11.00001,-0.001219699
11.10001,-0.001214223
11.20001,-0.001208568
11.30001,-0.001203286
11.40001,-0.00119824
11.50001,-0.001192456
11.60001,-0.001187541
11.70001,-0.001182475
11.80001,-0.001177521
11.90001,-0.001172904
12.00001,-0.001167965
12.10001,-0.001163158
12.20001,-0.001158243
12.30001,-0.001153543
12.40001,-0.001148926
12.50001,-0.001144127
12.60001,-0.001139458
12.70001,-0.001135001
12.80001,-0.001130482
12.90001,-0.001125893
13.00001,-0.001121516
13.10001,-0.00111707
13.20001,-0.00111277
13.30001,-0.001108756
13.40001,-0.001104621
13.50002,-0.001100556
13.60002,-0.001096714
13.70002,-0.00109264
13.80002,-0.0010889
13.90002,-0.001085001
14.00002,-0.001080856
14.10002,-0.00107713
14.20002,-0.00107331
14.30002,-0.001069397
14.40002,-0.00106576
14.50002,-0.001062019
14.60002,-0.001058005
14.70002,-0.001054326
14.80002,-0.001050696
14.90002,-0.001046946
15.00002,-0.001043444
15.10002,-0.001039909
15.20002,-0.001036156
15.30002,-0.001032684
15.40002,-0.001029196
15.50002,-0.001025638
15.60002,-0.001022325
15.70002,-0.001018811
15.80002,-0.001015367
15.90002,-0.001012097
16.00002,-0.001008942
16.10003,-0.001005547
16.20003,-0.001002514
16.30003,-0.0009992785
16.40003,-0.0009960427
16.50003,-0.0009929114
16.60003,-0.0009897585
16.70003,-0.0009866141
16.80003,-0.0009834715
16.90003,-0.0009803986
17.00003,-0.0009774049
17.10003,-0.000974317
17.20003,-0.0009712638
17.30003,-0.0009683039
17.40003,-0.0009652838
17.50003,-0.000962293
17.60003,-0.0009594423
17.70003,-0.0009566341
17.80003,-0.0009536177
17.90003,-0.0009508819
18.00003,-0.0009480134
18.10003,-0.0009453634
18.20003,-0.0009424873
18.30003,-0.0009397319
18.40003,-0.0009369896
18.50003,-0.0009343725
18.60003,-0.0009316339
18.70004,-0.0009289453
18.80004,-0.0009263498
18.90004,-0.0009237083
19.00004,-0.0009211101
19.10004,-0.0009185731
19.20004,-0.0009158665
19.30004,-0.0009134736
19.40004,-0.0009110608
19.50004,-0.0009083731
19.60004,-0.0009061196
19.70004,-0.0009036532
19.80004,-0.0009010775
19.90004,-0.0008987213
20.00004,-0.0008966674
20.10004,-0.0008941831
20.20004,-0.0008919258
20.30004,-0.0008895941
20.40004,-0.0008871945
20.50004,-0.0008849448
20.60004,-0.0008826309
20.70004,-0.0008802013
20.80004,-0.0008780334
20.90004,-0.0008756611
21.00004,-0.000873288
21.10004,-0.0008711229
21.20004,-0.0008689805
21.30005,-0.0008667863
21.40005,-0.0008646052
21.50005,-0.0008623714
21.60005,-0.0008602111
21.70005,-0.0008580979
21.80005,-0.0008558613
21.90005,-0.0008537536
22.00005,-0.0008517017
22.10005,-0.0008495027
22.20005,-0.0008473593
22.30005,-0.0008452659
22.40005,-0.0008431234
22.50005,-0.0008410761
22.60005,-0.0008389694
22.70005,-0.0008368948
22.80005,-0.0008348748
22.90005,-0.0008329038
23.00005,-0.0008308347
23.10005,-0.000828875
23.20005,-0.0008268136
23.30005,-0.000824997
23.40005,-0.0008231399
23.50005,-0.0008211208
23.60005,-0.0008191093
23.70005,-0.0008173209
23.80005,-0.0008153584
23.90005,-0.0008135295
24.00006,-0.0008116442
24.10006,-0.0008097776
24.20006,-0.000807913
24.30006,-0.0008061011
24.40006,-0.0008042064
24.50006,-0.0008022626
24.60006,-0.0008005722
24.70006,-0.000798733
24.80006,-0.0007969061
24.90006,-0.0007951676
25.00006,-0.0007932399
25.10006,-0.0007915015
25.20006,-0.0007897367
25.30006,-0.0007878645
25.40006,-0.0007861345
25.50006,-0.0007844206
25.60006,-0.0007826615
25.70006,-0.0007809202
25.80006,-0.0007792279
25.90006,-0.0007774056
26.00006,-0.0007757143
26.10006,-0.0007742385
26.20006,-0.0007724249
26.30006,-0.0007707419
26.40006,-0.0007691184
26.50006,-0.0007673922
26.60007,-0.0007656341
26.70007,-0.0007639898
26.80007,-0.0007623417
26.90007,-0.0007607493
27.00007,-0.0007590663
27.10007,-0.0007574353
27.20007,-0.0007558682
27.30007,-0.0007544001
27.40007,-0.0007527266
27.50007,-0.0007512104
27.60007,-0.0007495878
27.70007,-0.0007479567
27.80007,-0.0007464566
27.90007,-0.0007449131
28.00007,-0.0007433395
28.10007,-0.0007417884
28.20007,-0.0007402562
28.30007,-0.0007387702
28.40007,-0.000737384
28.50007,-0.0007358593
28.60007,-0.0007343214
28.70007,-0.0007328062
28.80007,-0.0007313606
28.90007,-0.0007299188
29.00007,-0.0007284497
29.10007,-0.0007269222
29.20008,-0.0007254852
29.30008,-0.0007241092
29.40008,-0.0007226355
29.50008,-0.0007212153
29.60008,-0.0007197726
29.70008,-0.0007182583
29.80008,-0.0007168015
29.90008,-0.0007154247
30.00008,-0.0007139565
30.10008,-0.0007125749
30.20008,-0.0007111275
30.30008,-0.0007097027
30.40008,-0.0007083183
30.50008,-0.0007070366
30.60008,-0.000705657
30.70008,-0.0007041747
30.80008,-0.0007030108
30.90008,-0.0007016584
31.00008,-0.0007002863
31.10008,-0.0006988887
31.20008,-0.0006976787
31.30008,-0.0006963621
31.40008,-0.0006950108
31.50008,-0.0006936847
31.60008,-0.0006923908
31.70008,-0.000691062
31.80009,-0.0006897878
31.90009,-0.0006885853
32.00008,-0.0006872076
32.10008,-0.0006859277
32.20008,-0.000684792
32.30008,-0.0006834312
32.40008,-0.0006823312
32.50008,-0.0006811013
32.60007,-0.0006798583
32.70007,-0.0006787037
32.80007,-0.0006775924
32.90007,-0.0006763946
33.00007,-0.0006751873
33.10007,-0.0006739988
33.20007,-0.0006728273
33.30006,-0.0006716162
33.40006,-0.0006703995
33.50006,-0.000669212
33.60006,-0.0006680122
33.70006,-0.0006668162
33.80006,-0.0006655732
33.90005,-0.0006644543
34.00005,-0.0006632282
34.10005,-0.000662004
34.20005,-0.0006608409
34.30005,-0.0006596459
34.40005,-0.0006583877
34.50005,-0.0006572285
34.60004,-0.0006561002
34.70004,-0.0006548901
34.80004,-0.0006537704
34.90004,-0.0006526046
35.00004,-0.0006513916
35.10004,-0.0006502963
35.20004,-0.0006491211
35.30003,-0.0006479938
35.40003,-0.0006468723
35.50003,-0.0006457149
35.60003,-0.0006445781
35.70003,-0.0006435037
35.80003,-0.0006424009
35.90002,-0.000641234
36.00002,-0.0006401474
36.10002,-0.0006391001
36.20002,-0.0006378891
36.30002,-0.0006368645
36.40002,-0.0006357579
36.50002,-0.0006346702
36.60001,-0.0006336136
36.70001,-0.0006324751
36.80001,-0.0006314165
36.90001,-0.0006303571
37.00001,-0.0006293014
37.10001,-0.0006282439
37.2,-0.0006271609
37.3,-0.0006261334
37.4,-0.000625075
37.5,-0.0006240899
37.6,-0.0006230154
37.7,-0.0006219258
37.8,-0.0006209116
37.89999,-0.0006199096
37.99999,-0.0006189311
38.09999,-0.0006179328
38.19999,-0.0006169892
38.29999,-0.0006160136
38.39999,-0.0006149485
38.49998,-0.0006140312
38.59998,-0.0006130029
38.69998,-0.000611887
38.79998,-0.0006109264
38.89998,-0.0006100166
38.99998,-0.0006089638
39.09998,-0.0006079693
39.19997,-0.0006070304
39.29997,-0.0006059973
39.39997,-0.0006050772
39.49997,-0.0006041845
39.59997,-0.0006031316
39.69997,-0.0006021654
39.79996,-0.0006012463
39.89996,-0.0006002227
39.99996,-0.0005993308
40.09996,-0.0005984089
40.19996,-0.0005974709
40.29996,-0.0005965442
40.39996,-0.0005956449
40.49995,-0.0005947351
40.59995,-0.0005937549
40.69995,-0.0005928724
40.79995,-0.0005918949
40.89995,-0.0005910388
40.99995,-0.0005901329
41.09995,-0.0005891742
41.19994,-0.0005883022
41.29994,-0.0005873934
41.39994,-0.0005864291
41.49994,-0.0005855816
41.59994,-0.0005847651
41.69994,-0.0005837546
41.79993,-0.0005829767
41.89993,-0.0005821461
41.99993,-0.000581178
42.09993,-0.0005803775
42.19993,-0.0005795639
42.29993,-0.0005786156
42.39993,-0.0005777736
42.49992,-0.0005769477
42.59992,-0.0005759843
42.69992,-0.0005751217
42.79992,-0.0005743344
42.89992,-0.0005733607
42.99992,-0.000572579
43.09991,-0.0005717447
43.19991,-0.0005708651
43.29991,-0.0005700534
43.39991,-0.0005691898
43.49991,-0.0005683102
43.59991,-0.0005674758
43.69991,-0.0005666537
43.7999,-0.0005658456
43.8999,-0.0005649708
43.9999,-0.0005641204
44.0999,-0.0005632908
44.1999,-0.0005624375
44.2999,-0.0005616032
44.39989,-0.0005608018
44.49989,-0.0005598902
44.59989,-0.0005591829
44.69989,-0.0005584729
44.79989,-0.0005576017
44.89989,-0.0005567081
44.99989,-0.000555982
45.09988,-0.00055514
45.19988,-0.0005543359
45.29988,-0.0005535024
45.39988,-0.0005527123
45.49988,-0.0005519334
45.59988,-0.0005511791
45.69987,-0.0005503617
45.79987,-0.0005495641
45.89987,-0.0005487947
45.99987,-0.0005479594
46.09987,-0.0005472616
46.19987,-0.0005464592
46.29987,-0.0005456257
46.39986,-0.0005448752
46.49986,-0.0005441303
46.59986,-0.0005433307
46.69986,-0.0005426056
46.79986,-0.0005419332
46.89986,-0.0005411045
46.99986,-0.0005403097
47.09985,-0.0005396091
47.19985,-0.0005388293
47.29985,-0.0005380778
47.39985,-0.0005373451
47.49985,-0.0005365588
47.59985,-0.0005357978
47.69984,-0.0005350896
47.79984,-0.0005343325
47.89984,-0.0005335942
47.99984,-0.000532853
48.09984,-0.0005320959
48.19984,-0.0005313623
48.29984,-0.0005307172
48.39983,-0.0005299374
48.49983,-0.0005292019
48.59983,-0.0005285041
48.69983,-0.0005278204
48.79983,-0.0005271189
48.89983,-0.0005264041
48.99982,-0.0005256535
49.09982,-0.0005249566
49.19982,-0.0005242023
49.29982,-0.0005234799
49.39982,-0.000522769
49.49982,-0.0005220429
49.59982,-0.000521314
49.69981,-0.000520636
49.79981,-0.0005199222
49.89981,-0.0005191904
49.99981,-0.0005185821
50.09981,-0.0005177947
50.19981,-0.0005171328
50.2998,-0.000516449
50.3998,-0.0005157465
50.4998,-0.0005150553
50.5998,-0.0005143828
50.6998,-0.0005136455
50.7998,-0.0005129731
50.8998,-0.0005123393
50.99979,-0.0005116575
51.09979,-0.0005109549
51.19979,-0.0005102326
51.29979,-0.0005096591
51.39979,-0.0005090828
51.49979,-0.0005083557
51.59978,-0.0005076081
51.69978,-0.0005069987
51.79978,-0.0005063037
51.89978,-0.000505637
51.99978,-0.0005050258
52.09978,-0.000504312
52.19978,-0.0005036368
52.29977,-0.0005029813
52.39977,-0.0005022977
52.49977,-0.0005016385
52.59977,-0.0005010611
52.69977,-0.000500385
52.79977,-0.0004997672
52.89977,-0.0004991174
52.99976,-0.0004984281
53.09976,-0.0004978235
53.19976,-0.0004972095
53.29976,-0.0004965559
53.39976,-0.0004959052
53.49976,-0.0004953985
53.59975,-0.0004947073
53.69975,-0.0004940434
53.79975,-0.000493387
53.89975,-0.0004927466
53.99975,-0.0004921496
54.09975,-0.0004915713
54.19975,-0.000490898
54.29974,-0.0004902859
54.39974,-0.0004896474
54.49974,-0.0004890146
54.59974,-0.000488393
54.69974,-0.0004877705
54.79974,-0.0004871716
54.89973,-0.0004865425
54.99973,-0.0004859134
55.09973,-0.0004852862
55.19973,-0.0004846939
55.29973,-0.0004840516
55.39973,-0.000483416
55.49973,-0.0004828377
55.59972,-0.0004822265
55.69972,-0.0004816398
55.79972,-0.0004810268
55.89972,-0.0004803798
55.99972,-0.0004797771
56.09972,-0.0004792055
56.19971,-0.0004785773
56.29971,-0.0004779501
56.39971,-0.0004773691
56.49971,-0.0004768408
56.59971,-0.0004762117
56.69971,-0.0004756476
56.79971,-0.0004750081
56.8997,-0.0004744252
56.9997,-0.0004738498
57.0997,-0.0004732998
57.1997,-0.0004726934
57.2997,-0.0004721123
57.3997,-0.0004715756
57.49969,-0.0004710557
57.59969,-0.0004704181
57.69969,-0.000469904
57.79969,-0.0004693267
57.89969,-0.0004686976
57.99969,-0.0004681552
58.09969,-0.0004676184
58.19968,-0.0004670675
58.29968,-0.000466525
58.39968,-0.0004659798
58.49968,-0.0004653827
58.59968,-0.0004648441
58.69968,-0.0004642799
58.79967,-0.0004636867
58.89967,-0.0004631178
58.99967,-0.000462631
59.09967,-0.0004620461
59.19967,-0.0004614962
59.29967,-0.0004609942
59.39967,-0.0004604405
59.49966,-0.0004599178
59.59966,-0.0004593255
59.69966,-0.0004588386
59.79966,-0.0004582736
59.89966,-0.0004577519
59.99966,-0.0004571831
60.09966,-0.0004566519
60.19965,-0.0004561274
60.29965,-0.0004555784
60.39965,-0.0004550453
60.49965,-0.0004544907
60.59965,-0.0004540085
60.69965,-0.0004534811
60.79964,-0.0004529566
60.89964,-0.0004524075
60.99964,-0.0004519122
61.09964,-0.000451399
61.19964,-0.0004508687
61.29964,-0.0004503385
61.39964,-0.0004499073
61.49963,-0.000449442
61.59963,-0.0004488591
61.69963,-0.0004483392
61.79963,-0.0004478364
61.89963,-0.0004472723
61.99963,-0.0004467675
62.09962,-0.0004462627
62.19962,-0.000445694
62.29962,-0.0004451948
62.39962,-0.0004446345
62.49962,-0.0004441156
62.59962,-0.0004436419
62.69962,-0.0004431108
62.79961,-0.0004425797
62.89961,-0.0004421474
62.99961,-0.0004416831
63.09961,-0.0004412471
63.19961,-0.0004408149
63.29961,-0.0004403195
63.3996,-0.0004397903
63.4996,-0.0004393344
63.5996,-0.000438857
63.6996,-0.0004383936
63.7996,-0.0004379039
63.8996,-0.0004373483
63.9996,-0.000436869
64.09959,-0.0004364066
64.19959,-0.0004358773
64.29959,-0.0004353387
64.39959,-0.0004349431
64.49959,-0.0004344007
64.59959,-0.0004339204
64.69958,-0.0004334326
64.79958,-0.000432909
64.89958,-0.0004323976
64.99958,-0.0004319089
65.09958,-0.0004314361
65.19958,-0.0004309285
65.29958,-0.0004304379
65.39957,-0.0004299369
65.49957,-0.0004294406
65.59957,-0.0004289688
65.69957,-0.0004284951
65.79957,-0.0004280082
65.89957,-0.0004275063
65.99957,-0.0004270731
66.09956,-0.0004265966
66.19956,-0.0004260852
66.29956,-0.0004256341
66.39956,-0.0004251595
66.49956,-0.0004246707
66.59956,-0.0004241895
66.69955,-0.0004238072
66.79955,-0.0004232817
66.89955,-0.0004227891
66.99955,-0.000422371
67.09955,-0.0004218729
67.19955,-0.0004214048
67.29955,-0.0004209885
67.39954,-0.0004204942
67.49954,-0.0004200383
67.59954,-0.0004196174
67.69954,-0.0004191635
67.79954,-0.0004186672
67.89954,-0.000418234
67.99953,-0.0004177857
68.09953,-0.00041736
68.19953,-0.0004169109
68.29953,-0.0004163939
68.39953,-0.0004159833
68.49953,-0.000415551
68.59953,-0.0004150622
68.69952,-0.0004146366
68.79952,-0.0004142081
68.89952,-0.0004137325
68.99952,-0.0004133068
69.09952,-0.0004128887
69.19952,-0.0004124301
69.29951,-0.0004119441
69.39951,-0.0004115448
69.49951,-0.0004111587
69.59951,-0.0004107293
69.69951,-0.0004103536
69.79951,-0.0004099053
69.89951,-0.0004094439
69.9995,-0.0004089909
70.0995,-0.0004085587
70.1995,-0.0004080925
70.2995,-0.0004076574
70.3995,-0.0004072355
70.4995,-0.0004067741
70.59949,-0.0004063955
70.69949,-0.0004059256
70.79949,-0.0004054707
70.89949,-0.0004050337
70.99949,-0.0004046448
71.09949,-0.0004041777
71.19949,-0.0004037633
71.29948,-0.0004033264
71.39948,-0.0004028508
71.49948,-0.0004024515
71.59948,-0.0004020164
71.69948,-0.0004015324
71.79948,-0.0004011604
71.89948,-0.0004007658
71.99947,-0.0004003091
72.09947,-0.0003999098
72.19947,-0.0003994982
72.29947,-0.0003990396
72.39947,-0.0003986573
72.49947,-0.0003982759
72.59946,-0.0003978342
72.69946,-0.0003974245
72.79946,-0.0003970215
72.89946,-0.0003965572
72.99946,-0.0003962022
73.09946,-0.0003958151
73.19946,-0.0003953716
73.29945,-0.0003949582
73.39945,-0.0003945692
73.49945,-0.0003941501
73.59945,-0.0003937885
73.69945,-0.0003934071
73.79945,-0.000392924
73.89944,-0.000392568
73.99944,-0.0003921744
74.09944,-0.0003917676
74.19944,-0.0003913899
74.29944,-0.0003910208
74.39944,-0.0003906385
74.49944,-0.0003902448
74.59943,-0.0003898408
74.69943,-0.0003893982
74.79943,-0.0003889932
74.89943,-0.0003886599
74.99943,-0.0003882474
75.09943,-0.0003878415
75.19942,-0.0003874271
75.29942,-0.0003870457
75.39942,-0.0003866426
75.49942,-0.0003862877
75.59942,-0.0003858724
75.69942,-0.0003854731
75.79942,-0.0003851237
75.89941,-0.0003847677
75.99941,-0.0003843656
76.09941,-0.0003840105
76.19941,-0.0003835952
76.29941,-0.0003832091
76.39941,-0.0003828258
76.4994,-0.000382484
76.5994,-0.0003821233
76.6994,-0.0003817306
76.7994,-0.0003813276
76.8994,-0.0003809245
76.9994,-0.0003805506
77.0994,-0.0003801777
77.19939,-0.0003798142
77.29939,-0.0003794441
77.39939,-0.0003790561
77.49939,-0.000378669
77.59939,-0.0003783074
77.69939,-0.0003778996
77.79939,-0.0003775502
77.89938,-0.0003771801
77.99938,-0.000376778
78.09938,-0.0003763816
78.19938,-0.0003760444
78.29938,-0.000375679
78.39938,-0.0003752948
78.49937,-0.0003749077
78.59937,-0.0003745489
78.69937,-0.0003741836
78.79937,-0.0003738521
78.89937,-0.0003734688
78.99937,-0.0003730893
79.09937,-0.0003727333
79.19936,-0.0003723848
79.29936,-0.000371995
79.39936,-0.0003716484
79.49936,-0.0003712962
79.59936,-0.0003709224
79.69936,-0.000370604
79.79935,-0.0003702226
79.89935,-0.0003698064
79.99935,-0.0003694975
80.09935,-0.000369166
80.19935,-0.0003687988
80.29935,-0.0003684258
80.39935,-0.0003680736
80.49934,-0.0003676932
80.59934,-0.0003673391
80.69934,-0.0003670095
80.79934,-0.0003666186
80.89934,-0.000366273
80.99934,-0.0003659689
81.09933,-0.0003655545
81.19933,-0.0003652277
81.29933,-0.0003649066
81.39933,-0.0003645525
81.49933,-0.0003641899
81.59933,-0.0003638386
81.69933,-0.0003635269
81.79932,-0.0003631512
81.89932,-0.0003628112
81.99932,-0.0003624383
82.09932,-0.000362104
82.19932,-0.0003617781
82.29932,-0.0003614005
82.39931,-0.0003610973
82.49931,-0.0003607488
82.59931,-0.0003604616
82.69931,-0.000360131
82.79931,-0.000359776
82.89931,-0.0003594163
82.99931,-0.0003590518
83.0993,-0.0003587712
83.1993,-0.0003584397
83.2993,-0.0003580988
83.3993,-0.0003577899
83.4993,-0.0003574207
83.5993,-0.0003570893
83.6993,-0.0003567615
83.79929,-0.0003564338
83.89929,-0.0003560675
83.99929,-0.0003557576
84.09929,-0.0003554337
84.19929,-0.0003551267
84.29929,-0.0003548253
84.39928,-0.0003544882
84.49928,-0.0003541331
84.59928,-0.0003537753
84.69928,-0.0003534617
84.79928,-0.0003531434
84.89928,-0.0003528722
84.99928,-0.0003525736
85.09927,-0.0003521998
85.19927,-0.0003518504
85.29927,-0.000351534
85.39927,-0.0003512053
85.49927,-0.0003508795
85.59927,-0.0003505885
85.69926,-0.0003502108
85.79926,-0.0003499151
85.89926,-0.000349627
85.99926,-0.0003492842
86.09926,-0.0003489894
86.19926,-0.0003486674
86.29926,-0.0003483302
86.39925,-0.0003480204
86.49925,-0.0003477586
86.59925,-0.0003474186
86.69925,-0.0003470984
86.79925,-0.0003467952
86.89925,-0.0003464599
86.99924,-0.0003461595
87.09924,-0.000345894
87.19924,-0.0003455229
87.29924,-0.0003452272
87.39924,-0.0003449437
87.49924,-0.0003446123
87.59924,-0.0003443326
87.69923,-0.0003440294
87.79923,-0.0003437656
87.89923,-0.000343436
87.99923,-0.0003432307
88.09923,-0.0003428936
88.19923,-0.0003425357
88.29922,-0.0003422777
88.39922,-0.0003419914
88.49922,-0.0003416204
88.59922,-0.0003413671
88.69922,-0.0003410685
88.79922,-0.0003406909
88.89922,-0.0003404366
88.99921,-0.0003401965
89.09921,-0.0003398386
89.19921,-0.0003395665
89.29921,-0.0003392472
89.39921,-0.000338912
89.49921,-0.00033862
89.59921,-0.0003383752
89.6992,-0.000338022
89.7992,-0.0003377339
89.8992,-0.0003374146
89.9992,-0.0003371114
90.0992,-0.0003368383
90.1992,-0.0003365595
90.29919,-0.0003362054
90.39919,-0.0003359144
90.49919,-0.0003356272
90.59919,-0.000335323
90.69919,-0.0003350311
90.79919,-0.0003347307
90.89919,-0.0003344359
90.99918,-0.0003341261
91.09918,-0.0003338699
91.19918,-0.0003335695
91.29918,-0.0003333068
91.39918,-0.0003329668
91.49918,-0.0003327097
91.59917,-0.0003324112
91.69917,-0.0003321212
91.79917,-0.0003318104
91.89917,-0.0003315278
91.99917,-0.0003312039
92.09917,-0.0003309345
92.19917,-0.0003306775
92.29916,-0.0003303865
92.39916,-0.0003300606
92.49916,-0.0003298214
92.59916,-0.000329521
92.69916,-0.0003292168
92.79916,-0.0003289625
92.89915,-0.000328681
92.99915,-0.0003283457
93.09915,-0.0003280886
93.19915,-0.0003278475
93.29915,-0.0003275405
93.39915,-0.0003272787
93.49915,-0.0003269783
93.59914,-0.0003267109
93.69914,-0.0003264293
93.79914,-0.0003261317
93.89914,-0.0003258709
93.99914,-0.0003256109
94.09914,-0.0003253378
94.19913,-0.0003250327
94.29913,-0.0003247643
94.39913,-0.0003244752
94.49913,-0.0003241795
94.59913,-0.0003239158
94.69913,-0.000323622
94.79913,-0.0003233442
94.89912,-0.0003230843
94.99912,-0.0003228159
95.09912,-0.0003225409
95.19912,-0.0003222405
95.29912,-0.0003219853
95.39912,-0.0003217018
95.49911,-0.0003214221
95.59911,-0.0003211519
95.69911,-0.0003208834
95.79911,-0.0003206358
95.89911,-0.0003203665
95.99911,-0.0003200717
96.09911,-0.0003198005
96.1991,-0.000319582
96.2991,-0.000319259
96.3991,-0.0003189793
96.4991,-0.0003187552
96.5991,-0.000318466
96.6991,-0.0003181779
96.7991,-0.0003179142
96.89909,-0.0003176552
96.99909,-0.0003173331
97.09909,-0.0003170958
97.19909,-0.0003168415
97.29909,-0.0003165637
97.39909,-0.0003162897
97.49908,-0.0003160204
97.59908,-0.0003157529
97.69908,-0.0003155062
97.79908,-0.0003152104
97.89908,-0.000314944
97.99908,-0.0003147349
98.09908,-0.000314442
98.19907,-0.0003141482
98.29907,-0.0003139401
98.39907,-0.0003136688
98.49907,-0.0003133656
98.59907,-0.0003131151
98.69907,-0.0003128882
98.79906,-0.0003126141
98.89906,-0.0003123476
98.99906,-0.0003121112
99.09906,-0.0003118334
99.19906,-0.0003116206
99.29906,-0.0003113475
99.39906,-0.0003110603
99.49905,-0.0003107975
99.59905,-0.0003105329
99.69905,-0.0003102617
99.79905,-0.0003100441
99.89905,-0.0003097927
99.99905,-0.0003095365
100.099,-0.0003092954
100.199,-0.0003090327
100.299,-0.0003087897
100.399,-0.0003085505
100.499,-0.0003083151
100.599,-0.0003080175
100.699,-0.0003077793
100.799,-0.0003075523
100.899,-0.0003072971
100.999,-0.0003070551
101.099,-0.0003067782
101.199,-0.0003065569
101.299,-0.0003063177
101.399,-0.0003061001
101.499,-0.0003058412
101.599,-0.0003055841
101.699,-0.0003053703
101.799,-0.0003051283
101.899,-0.0003048674
101.999,-0.0003046245
102.099,-0.000304374
102.199,-0.0003041319
102.299,-0.000303938
102.399,-0.0003037364
102.499,-0.0003034737
102.599,-0.0003032147
102.699,-0.0003029905
102.799,-0.0003027278
102.899,-0.0003025451
102.999,-0.0003023078
103.099,-0.0003020526
103.199,-0.000301852
103.299,-0.0003015902
103.399,-0.0003013491
103.499,-0.0003011241
103.599,-0.000300899
103.699,-0.0003006033
103.799,-0.0003004092
103.899,-0.0003001993
103.999,-0.0002998951
104.099,-0.0002996813
104.199,-0.0002994751
104.299,-0.0002992406
104.399,-0.0002990447
104.499,-0.0002988441
104.599,-0.0002985315
104.699,-0.0002983036
104.799,-0.0002980804
104.899,-0.0002978242
104.999,-0.0002976001
105.099,-0.0002973524
105.199,-0.0002970746
105.299,-0.0002968853
105.399,-0.0002966913
105.499,-0.0002963796
105.599,-0.0002961856
105.699,-0.0002960566
105.799,-0.000295856
105.899,-0.0002956196
105.999,-0.0002953672
106.099,-0.0002951177
106.199,-0.0002948964
106.299,-0.0002946657
106.3989,-0.0002943944
106.4989,-0.0002941882
106.5989,-0.0002939377
106.6989,-0.0002937088
106.7989,-0.0002935129
106.8989,-0.0002932728
106.9989,-0.0002930223
107.0989,-0.0002928057
107.1989,-0.0002925647
107.2989,-0.0002923019
107.3989,-0.0002920853
107.4989,-0.0002919064
107.5989,-0.0002916371
107.6989,-0.0002914129
107.7989,-0.0002911991
107.8989,-0.0002909995
107.9989,-0.0002907763
108.0989,-0.0002905343
108.1989,-0.0002903054
108.2989,-0.0002900804
108.3989,-0.0002898713
108.4989,-0.0002896283
108.5989,-0.0002893647
108.6989,-0.000289164
108.7989,-0.0002889606
108.8989,-0.000288745
108.9989,-0.0002885058
109.0989,-0.0002882713
109.1989,-0.0002880396
109.2989,-0.0002878663
109.3989,-0.0002876121
109.4989,-0.0002873917
109.5989,-0.0002871798
109.6989,-0.0002869331
109.7989,-0.0002867287
109.8989,-0.00028653
109.9989,-0.0002862889
110.0989,-0.0002860592
110.1989,-0.0002858708
110.2989,-0.0002856203
110.3989,-0.0002853943
110.4989,-0.000285205
110.5989,-0.0002850148
110.6989,-0.000284769
110.7989,-0.0002846014
110.8989,-0.0002844064
110.9989,-0.0002841569
111.0989,-0.0002839977
111.1989,-0.0002838197
111.2989,-0.0002836078
111.3989,-0.0002834101
111.4989,-0.0002832067
111.5989,-0.0002829637
111.6989,-0.0002828139
111.7989,-0.0002825701
111.8989,-0.0002823497
111.9989,-0.000282117
112.0989,-0.0002819231
112.1989,-0.0002816952
112.2989,-0.0002815087
112.3989,-0.0002812827
112.4989,-0.0002810284
112.5989,-0.0002808043
112.6989,-0.0002806216
112.7989,-0.0002804069
112.8988,-0.0002801837
112.9988,-0.0002799812
113.0988,-0.0002797674
113.1988,-0.0002795772
113.2988,-0.0002793945
113.3988,-0.0002791657
113.4988,-0.0002789623
113.5988,-0.0002787758
113.6988,-0.0002785762
113.7988,-0.0002783803
113.8988,-0.0002781373
113.9988,-0.0002779235
114.0988,-0.0002777201
114.1988,-0.0002775902
114.2988,-0.0002773886
114.3988,-0.0002771297
114.4988,-0.0002769639
114.5988,-0.0002768311
114.6988,-0.0002766155
114.7988,-0.0002764742
114.8988,-0.0002762397
114.9988,-0.0002760523
115.0988,-0.0002759685
115.1988,-0.0002759327
115.2988,-0.0002756709
115.3988,-0.0002754807
115.4988,-0.0002752999
115.5988,-0.0002750776
115.6988,-0.0002749891
115.7988,-0.000274878
115.8988,-0.0002746586
115.9988,-0.0002744985
116.0988,-0.0002743092
116.1988,-0.0002740578
116.2988,-0.0002739212
116.3988,-0.000273731
116.4988,-0.0002734484
116.5988,-0.0002732347
116.6988,-0.0002730586
116.7988,-0.0002728354
116.8988,-0.0002726649
116.9988,-0.000272437
117.0988,-0.000272178
117.1988,-0.0002719916
117.2988,-0.0002718381
117.3988,-0.0002715895
117.4988,-0.0002713842
117.5988,-0.0002712495
117.6988,-0.0002710894
117.7988,-0.0002708521
117.8988,-0.0002706232
117.9988,-0.0002704142
118.0988,-0.0002701985
118.1988,-0.0002699734
118.2988,-0.0002697795
118.3988,-0.000269561
118.4988,-0.0002693726
118.5988,-0.000269173
118.6988,-0.00026893
118.7988,-0.0002687633
118.8988,-0.0002685364
118.9988,-0.0002683376
119.0988,-0.0002681154
119.1988,-0.0002679026
119.2988,-0.0002677378
119.3988,-0.00026754
119.4987,-0.0002673084
119.5987,-0.0002670908
119.6987,-0.0002669307
119.7987,-0.0002667367
119.8987,-0.0002665079
119.9987,-0.0002663383
120.0987,-0.0002661246
120.1987,-0.0002659155
120.2987,-0.0002657498
120.3987,-0.0002655746
120.4987,-0.0002653486
120.5987,-0.0002651659
120.6987,-0.0002649851
120.7987,-0.0002647704
120.8987,-0.0002646206
120.9987,-0.0002644606
121.0987,-0.0002642223
121.1987,-0.0002640556
121.2987,-0.0002638805
121.3987,-0.0002636978
121.4987,-0.0002635414
121.5987,-0.0002633455
121.6987,-0.0002631515
121.7987,-0.0002629839
121.8987,-0.0002627767
121.9987,-0.0002625969
122.0987,-0.0002624283
122.1987,-0.0002622315
122.2987,-0.000262045
122.3987,-0.0002618435
122.4987,-0.0002616429
122.5987,-0.0002614414
122.6987,-0.0002613011
122.7987,-0.0002611344
122.8987,-0.0002609197
122.9987,-0.0002608048
123.0987,-0.0002606155
123.1987,-0.0002604045
123.2987,-0.0002602444
123.3987,-0.0002600523
123.4987,-0.0002598112
123.5987,-0.0002596116
123.6987,-0.0002594797
123.7987,-0.0002592462
123.8987,-0.0002590494
123.9987,-0.0002589081
124.0987,-0.0002587188
124.1987,-0.0002584966
124.2987,-0.0002583365
124.3987,-0.0002581415
124.4987,-0.000258005
124.5987,-0.0002578232
124.6987,-0.0002576368
124.7987,-0.0002574399
124.8987,-0.0002572912
124.9987,-0.0002570906
125.0987,-0.0002569258
125.1987,-0.0002567384
125.2987,-0.0002565538
125.3987,-0.0002564031
125.4987,-0.0002562204
125.5987,-0.0002560048
125.6987,-0.0002558673
125.7987,-0.0002556911
125.8987,-0.0002554849
125.9986,-0.0002552966
126.0986,-0.0002551581
126.1986,-0.0002549698
126.2986,-0.0002547862
126.3986,-0.0002546166
126.4986,-0.0002544415
126.5986,-0.0002542446
126.6986,-0.0002540865
126.7986,-0.0002538802
126.8986,-0.0002536862
126.9986,-0.0002535374
127.0986,-0.0002533613
127.1986,-0.0002532012
127.2986,-0.0002530534
127.3986,-0.0002528792
127.4986,-0.0002526814
127.5986,-0.0002525373
127.6986,-0.0002523819
127.7986,-0.0002521945
127.8986,-0.0002520146
127.9986,-0.0002518536
128.0986,-0.0002516558
128.1986,-0.0002514863
128.2986,-0.0002513375
128.3986,-0.0002511209
128.4986,-0.0002509448
128.5986,-0.0002507772
128.6987,-0.0002505983
128.7987,-0.0002504617
128.8987,-0.0002503082
128.9987,-0.0002500812
129.0987,-0.0002499277
129.1987,-0.0002497809
129.2987,-0.0002495981
129.3987,-0.0002494437
129.4987,-0.0002492582
129.5987,-0.0002490557
129.6987,-0.0002489041
129.7987,-0.0002487497
129.8987,-0.0002485321
129.9987,-0.0002483928
130.0987,-0.0002482232
130.1987,-0.0002480481
130.2988,-0.0002478927
130.3988,-0.000247743
130.4988,-0.0002475621
130.5988,-0.0002474039
130.6988,-0.0002472551
130.7988,-0.0002470677
130.8988,-0.0002468982
130.9988,-0.0002467654
131.0988,-0.0002465799
131.1988,-0.0002463718
131.2988,-0.0002462296
131.3988,-0.000246045
131.4988,-0.0002458708
131.5988,-0.0002456919
131.6988,-0.0002455214
131.7988,-0.0002453924
131.8988,-0.0002452022
131.9989,-0.0002450581
132.0989,-0.0002448716
132.1989,-0.0002447492
132.2989,-0.0002445844
132.3989,-0.0002444149
132.4989,-0.0002442576
132.5989,-0.0002441201
132.6989,-0.0002439318
132.7989,-0.0002437613
132.8989,-0.0002436078
132.9989,-0.0002434355
133.0989,-0.0002432716
133.1989,-0.0002431303
133.2989,-0.0002429429
133.3989,-0.0002428045
133.4989,-0.0002426736
133.599,-0.0002424768
133.699,-0.0002423054
133.799,-0.0002421764
133.899,-0.0002419984
133.999,-0.0002418675
134.099,-0.0002417196
134.199,-0.0002415435
134.299,-0.0002413976
134.399,-0.0002412657
134.499,-0.0002410651
134.599,-0.0002409003
134.699,-0.0002407581
134.799,-0.000240583
134.899,-0.000240453
134.999,-0.0002403033
135.099,-0.0002401093
135.1991,-0.0002399501
135.2991,-0.000239807
135.3991,-0.0002396478
135.4991,-0.0002395452
135.5991,-0.0002393493
135.6991,-0.00023916
135.7991,-0.0002390206
135.8991,-0.0002388963
135.9991,-0.0002387202
136.0991,-0.0002385526
136.1991,-0.000238385
136.2991,-0.000238222
136.3991,-0.000238125
136.4991,-0.0002379941
136.5991,-0.0002377757
136.6991,-0.0002376288
136.7991,-0.0002375129
136.8992,-0.0002373481
136.9992,-0.0002372172
137.0992,-0.0002370778
137.1992,-0.0002368933
137.2992,-0.0002367492
137.3992,-0.0002366305
137.4992,-0.0002364346
137.5992,-0.0002362802
137.6992,-0.0002361257
137.7992,-0.0002359977
137.8992,-0.0002358423
137.9992,-0.0002356775
138.0992,-0.0002355023
138.1992,-0.0002353611
138.2992,-0.0002352613
138.3992,-0.0002350795
138.4993,-0.0002349542
138.5993,-0.0002347894
138.6993,-0.0002346359
138.7993,-0.000234489
138.8993,-0.0002343242
138.9993,-0.0002341575
139.0993,-0.00023402
139.1993,-0.0002338995
139.2993,-0.0002337281
139.3993,-0.000233584
139.4993,-0.0002334446
139.5993,-0.0002333015
139.6993,-0.0002331339
139.7993,-0.0002330115
139.8993,-0.0002328504
139.9993,-0.0002326988
140.0993,-0.000232583
140.1994,-0.0002324163
140.2994,-0.0002322383
140.3994,-0.0002321121
140.4994,-0.0002319567
140.5994,-0.0002317853
140.6994,-0.0002316459
140.7994,-0.0002315103
140.8994,-0.00023137
140.9994,-0.0002312382
141.0994,-0.0002310762
141.1994,-0.000230934
141.2994,-0.0002307861
141.3994,-0.0002306731
141.4994,-0.0002304904
141.5994,-0.0002303755
141.6994,-0.0002302428
141.7995,-0.0002300337
141.8995,-0.0002299527
141.9995,-0.0002298265
142.0995,-0.0002296673
142.1995,-0.0002294818
142.2995,-0.0002293481
142.3995,-0.0002291937
142.4995,-0.0002290703
142.5995,-0.0002289111
142.6995,-0.0002287511
142.7995,-0.0002286314
142.8995,-0.0002284977
142.9995,-0.0002283357
143.0995,-0.0002282114
143.1995,-0.000228105
143.2995,-0.0002279365
143.3996,-0.000227815
143.4996,-0.0002276756
143.5996,-0.0002275306
143.6996,-0.0002273667
143.7996,-0.0002272857
143.8996,-0.000227135
143.9996,-0.0002269881
144.0996,-0.0002268544
144.1996,-0.0002267565
144.2996,-0.000226619
144.3996,-0.0002264862
144.4996,-0.0002263788
144.5996,-0.00022623
144.6996,-0.0002260803
144.7996,-0.0002259673
144.8996,-0.0002258307
144.9996,-0.0002257196
145.0997,-0.0002255492
145.1997,-0.0002254286
145.2997,-0.0002253533
145.3997,-0.0002252007
145.4997,-0.0002250359
145.5997,-0.0002249578
145.6997,-0.0002248203
145.7997,-0.000224662
145.8997,-0.00022455
145.9997,-0.0002244238
146.0997,-0.0002242467
146.1997,-0.0002241102
146.2997,-0.0002240038
146.3997,-0.0002238201
146.4997,-0.0002236892
146.5997,-0.0002235499
146.6998,-0.0002234058
146.7998,-0.0002232805
146.8998,-0.0002231619
146.9998,-0.0002230112
147.0998,-0.0002228699
147.1998,-0.0002227334
147.2998,-0.0002225884
147.3998,-0.000222464
147.4998,-0.0002223379
147.5998,-0.0002221693
147.6998,-0.0002220356
147.7998,-0.0002218896
147.8998,-0.0002217691
147.9998,-0.0002216203
148.0998,-0.0002214884
148.1998,-0.0002213387
148.2999,-0.0002211645
148.3999,-0.0002210759
148.4999,-0.0002209187
148.5999,-0.0002207708
148.6999,-0.0002206503
148.7999,-0.0002205325
148.8999,-0.0002203894
148.9999,-0.0002202425
149.0999,-0.0002201069
149.1999,-0.0002199553
149.2999,-0.0002198781
149.3999,-0.0002197104
149.4999,-0.0002195174
149.5999,-0.0002194298
149.6999,-0.0002193036
149.7999,-0.0002191388
149.8999,-0.0002190305
150,-0.0002188996
150.1,-0.0002187244
150.2,-0.0002185964
150.3,-0.000218473
150.4,-0.0002183223
150.5,-0.0002182074
150.6,-0.0002180793
150.7,-0.0002179447
150.8,-0.0002178213
150.9,-0.0002177149
151,-0.0002175821
151.1,-0.0002174173
151.2,-0.0002173015
151.3,-0.0002171743
151.4,-0.0002170472
151.5,-0.0002169012
151.6001,-0.0002167609
151.7001,-0.000216679
151.8001,-0.0002165085
151.9001,-0.0002163513
152.0001,-0.0002162166
152.1001,-0.0002161187
152.2001,-0.0002159642
152.3001,-0.0002158173
152.4001,-0.0002157279
152.5001,-0.0002155734
152.6001,-0.0002154519
152.7001,-0.0002153681
152.8001,-0.0002152363
152.9001,-0.0002150686
153.0001,-0.0002149924
153.1001,-0.0002148596
153.2001,-0.0002147371
153.3002,-0.0002146354
153.4002,-0.0002144951
153.5002,-0.0002143463
153.6002,-0.0002142333
153.7002,-0.0002141175
153.8002,-0.0002139687
153.9002,-0.000213866
154.0002,-0.0002137295
154.1002,-0.0002135722
154.2002,-0.0002134592
154.3002,-0.0002133406
154.4002,-0.0002132059
154.5002,-0.0002130712
154.6002,-0.0002129432
154.7002,-0.0002128169
154.8002,-0.0002127058
154.9003,-0.0002125966
155.0003,-0.0002124403
155.1003,-0.0002123244
155.2003,-0.000212218
155.3003,-0.0002120918
155.4003,-0.0002119769
155.5003,-0.0002118545
155.6003,-0.0002116727
155.7003,-0.0002115852
155.8003,-0.00021149
155.9003,-0.0002113253
156.0003,-0.0002112047
156.1003,-0.0002110964
156.2003,-0.0002110013
156.3003,-0.0002108713
156.4003,-0.0002107197
156.5004,-0.0002105672
156.6004,-0.0002104664
156.7004,-0.0002103798
156.8004,-0.0002102197
156.9004,-0.0002100888
157.0004,-0.0002099767
157.1004,-0.0002098317
157.2004,-0.0002097262
157.3004,-0.0002096113
157.4004,-0.0002094879
157.5004,-0.0002093533
157.6004,-0.0002092261
157.7004,-0.0002091207
157.8004,-0.0002089671
157.9004,-0.0002088664
158.0004,-0.0002087468
158.1004,-0.0002085848
158.2005,-0.0002085038
158.3005,-0.0002083644
158.4005,-0.0002082335
158.5005,-0.0002081394
158.6005,-0.0002080424
158.7005,-0.0002078719
158.8005,-0.0002077533
158.9005,-0.000207628
159.0005,-0.0002075169
159.1005,-0.000207402
159.2005,-0.000207289
159.3005,-0.0002071562
159.4005,-0.0002070394
159.5005,-0.0002069594
159.6005,-0.0002068002
159.7005,-0.000206691
159.8006,-0.0002065987
159.9006,-0.0002064311
160.0006,-0.000206351
160.1006,-0.0002062342
160.2006,-0.0002061137
160.3006,-0.0002059875
160.4006,-0.0002058999
160.5006,-0.0002057474
160.6006,-0.0002056137
160.7006,-0.0002055214
160.8006,-0.0002054008
160.9006,-0.0002052699
161.0006,-0.0002051927
161.1006,-0.0002050062
161.2006,-0.0002049168
161.3006,-0.0002047972
161.4007,-0.0002046653
161.5007,-0.0002045457
161.6007,-0.0002044713
161.7007,-0.0002043536
161.8007,-0.0002041963
161.9007,-0.0002041172
162.0007,-0.0002039995
162.1007,-0.0002038799
162.2007,-0.0002037763
162.3007,-0.0002036803
162.4007,-0.0002035202
162.5007,-0.0002034204
162.6007,-0.0002033394
162.7007,-0.0002031736
162.8007,-0.0002030503
162.9007,-0.0002029617
163.0007,-0.0002028403
163.1008,-0.0002027508
163.2008,-0.0002026368
163.3008,-0.000202473
163.4008,-0.0002023675
163.5008,-0.000202294
163.6008,-0.0002021509
163.7008,-0.0002020351
163.8008,-0.0002019249
163.9008,-0.0002017761
164.0008,-0.0002017092
164.1008,-0.0002016094
164.2008,-0.0002014625
164.3008,-0.0002013589
164.4008,-0.0002012572
164.5008,-0.0002011216
164.6008,-0.0002010312
164.7009,-0.0002009464
164.8009,-0.0002008278
164.9009,-0.0002007204
165.0009,-0.0002006347
165.1009,-0.0002005123
165.2009,-0.0002003927
165.3009,-0.0002002995
165.4009,-0.000200146
165.5009,-0.0002000329
165.6009,-0.0001999548
165.7009,-0.0001998107
165.8009,-0.0001996713
165.9009,-0.0001995762
166.0009,-0.000199466
166.1009,-0.0001993643
166.2009,-0.0001992391
166.3009,-0.0001991063
166.401,-0.0001989829
166.501,-0.000198933
166.601,-0.0001988049
166.701,-0.0001986768
166.801,-0.0001985874
166.901,-0.0001984744
167.001,-0.0001984009
167.101,-0.000198238
167.201,-0.0001981363
167.301,-0.0001980355
167.401,-0.0001979263
167.501,-0.0001978124
167.601,-0.0001976748
167.701,-0.0001975741
167.801,-0.0001974611
167.901,-0.0001973641
168.0011,-0.0001972633
168.1011,-0.0001971287
168.2011,-0.0001969959
168.3011,-0.0001969158
168.4011,-0.000196816
168.5011,-0.000196687
168.6011,-0.0001965806
168.7011,-0.0001964459
168.8011,-0.000196348
168.9011,-0.000196251
169.0011,-0.0001961314
169.1011,-0.0001960306
169.2011,-0.0001959317
169.3011,-0.0001958347
169.4011,-0.0001957066
169.5011,-0.000195588
169.6012,-0.0001954881
169.7012,-0.0001953591
169.8012,-0.0001952687
169.9012,-0.0001951463
170.0012,-0.0001950597
170.1012,-0.0001949655
170.2012,-0.0001948628
170.3012,-0.0001947404
170.4012,-0.0001946387
170.5012,-0.0001945436
170.6012,-0.0001943901
170.7012,-0.000194327
170.8012,-0.0001942093
170.9012,-0.0001941132
171.0012,-0.0001939899
171.1012,-0.0001939004
171.2012,-0.0001938062
171.3013,-0.0001937262
171.4013,-0.0001935793
171.5013,-0.0001934794
171.6013,-0.0001934116
171.7013,-0.0001933222
171.8013,-0.0001931809
171.9013,-0.0001930792
172.0013,-0.0001929756
172.1013,-0.0001928909
172.2013,-0.0001927713
172.3013,-0.000192663
172.4013,-0.0001925349
172.5013,-0.0001924285
172.6013,-0.0001923249
172.7013,-0.0001922185
172.8013,-0.0001921121
172.9014,-0.0001920273
173.0014,-0.0001919284
173.1014,-0.0001918041
173.2014,-0.0001916949
173.3014,-0.00019158
173.4014,-0.0001914849
173.5014,-0.00019137
173.6014,-0.0001912956
173.7014,-0.0001911882
173.8014,-0.0001910903
173.9014,-0.000190981
174.0014,-0.0001909057
174.1014,-0.0001908002
174.2014,-0.0001907173
174.3014,-0.000190577
174.4014,-0.0001905139
174.5014,-0.0001904405
174.6015,-0.0001902832
174.7015,-0.0001902003
174.8015,-0.0001901109
174.9015,-0.0001899762
175.0015,-0.0001898877
175.1015,-0.0001898095
175.2015,-0.0001896899
175.3015,-0.0001895524
175.4015,-0.0001894997
175.5015,-0.0001894055
175.6015,-0.0001892652
175.7015,-0.0001891927
175.8015,-0.0001890834
175.9015,-0.0001890062
176.0015,-0.0001889167
176.1015,-0.000188784
176.2016,-0.0001886926
176.3016,-0.0001885928
176.4016,-0.0001884449
176.5016,-0.0001883423
176.6016,-0.0001882462
176.7016,-0.0001881436
176.8016,-0.0001880447
176.9016,-0.0001879515
177.0016,-0.0001878451
177.1016,-0.000187766
177.2016,-0.0001876746
177.3016,-0.0001875446
177.4016,-0.0001874693
177.5016,-0.0001873676
177.6016,-0.0001873149
177.7016,-0.0001871698
177.8017,-0.0001870728
177.9017,-0.0001870578
178.0017,-0.0001869184
178.1017,-0.0001868129
178.2017,-0.0001867197
178.3017,-0.0001866133
178.4017,-0.0001865276
178.5017,-0.0001864447
178.6017,-0.0001863204
178.7017,-0.0001861801
178.8017,-0.0001861377
178.9017,-0.0001860417
179.0017,-0.0001859117
179.1017,-0.0001858467
179.2017,-0.0001857497
179.3017,-0.0001856433
179.4017,-0.0001855595
179.5018,-0.0001854286
179.6018,-0.0001853137
179.7018,-0.0001852336
179.8018,-0.0001851583
179.9018,-0.0001850443
180.0018,-0.0001849351
180.1018,-0.0001848202
180.2018,-0.0001847326
180.3018,-0.0001846479
180.4018,-0.0001845207
180.5018,-0.0001844228
180.6018,-0.0001843409
180.7018,-0.0001842411
180.8018,-0.0001841337
180.9018,-0.000184048
181.0018,-0.0001839322
181.1019,-0.000183838
181.2019,-0.0001837297
181.3019,-0.000183643
181.4019,-0.0001835414
181.5019,-0.000183466
181.6019,-0.0001833417
181.7019,-0.0001832249
181.8019,-0.0001831656
181.9019,-0.0001830714
182.0019,-0.0001829141
182.1019,-0.0001828633
182.2019,-0.000182772
182.3019,-0.0001826495
182.4019,-0.000182528
182.5019,-0.0001824555
182.6019,-0.0001823152
182.702,-0.0001822418
182.802,-0.0001821711
182.902,-0.000182044
183.002,-0.0001819658
183.102,-0.0001818782
183.202,-0.000181736
183.302,-0.0001816287
183.402,-0.0001815515
183.502,-0.000181478
183.602,-0.0001813716
183.702,-0.0001812746
183.802,-0.0001811456
183.902,-0.0001810872
184.002,-0.0001809751
184.102,-0.0001808678
184.202,-0.0001807708
184.302,-0.0001807002
184.4021,-0.0001805787
184.5021,-0.0001804591
184.6021,-0.0001803856
184.7021,-0.0001802764
184.8021,-0.0001801784
184.9021,-0.0001800993
185.0021,-0.0001799684
185.1021,-0.0001798686
185.2021,-0.0001798356
185.3021,-0.0001797141
185.4021,-0.0001795927
185.5021,-0.000179539
185.6021,-0.0001794505
185.7021,-0.0001793281
185.8021,-0.0001792348
185.9021,-0.0001791708
186.0022,-0.0001791067
186.1022,-0.0001789683
186.2022,-0.0001789156
186.3022,-0.0001788666
186.4022,-0.0001787658
186.5022,-0.0001786867
186.6022,-0.0001785775
186.7022,-0.0001784711
186.8022,-0.0001784004
186.9022,-0.0001782931
187.0022,-0.0001781735
187.1022,-0.0001781198
187.2022,-0.00017802
187.3022,-0.0001779314
187.4022,-0.0001778505
187.5022,-0.0001777356
187.6022,-0.0001776527
187.7023,-0.0001775792
187.8023,-0.0001774596
187.9023,-0.0001773438
188.0023,-0.0001772939
188.1023,-0.0001772261
188.2023,-0.0001771291
188.3023,-0.0001770123
188.4023,-0.0001769379
188.5023,-0.0001768174
188.6023,-0.0001767656
188.7023,-0.0001766733
188.8023,-0.0001765716
188.9023,-0.0001764737
189.0023,-0.0001763691
189.1023,-0.0001763041
189.2023,-0.0001762147
189.3024,-0.0001761045
189.4024,-0.0001759774
189.5024,-0.0001759331
189.6024,-0.0001758229
189.7024,-0.0001757033
189.8024,-0.0001756449
189.9024,-0.0001755837
190.0024,-0.0001754717
190.1024,-0.0001753662
190.2024,-0.0001752607
190.3024,-0.0001751439
190.4024,-0.0001750884
190.5024,-0.0001749707
190.6024,-0.0001748671
190.7024,-0.0001747889
190.8024,-0.0001747032
190.9025,-0.0001746279
191.0025,-0.000174528
191.1025,-0.000174448
191.2025,-0.0001743529
191.3025,-0.000174254
191.4025,-0.0001741796
191.5025,-0.0001740591
191.6025,-0.0001740148
191.7025,-0.0001739169
191.8025,-0.0001738048
191.9025,-0.0001737427
192.0025,-0.00017364
192.1025,-0.0001735298
192.2025,-0.0001734545
192.3025,-0.0001733612
192.4025,-0.0001732482
192.5025,-0.0001731644
192.6026,-0.0001730957
192.7026,-0.0001729949
192.8026,-0.000172929
192.9026,-0.0001728245
193.0026,-0.0001727152
193.1026,-0.0001726408
193.2026,-0.0001725598
193.3026,-0.0001724572
193.4026,-0.0001723592
193.5026,-0.0001722735
193.6026,-0.000172153
193.7026,-0.0001720974
193.8026,-0.0001720221
193.9026,-0.000171927
194.0026,-0.0001718111
194.1026,-0.0001717207
194.2027,-0.0001716445
194.3027,-0.0001715861
194.4027,-0.0001714919
194.5027,-0.0001713855
194.6027,-0.0001713035
194.7027,-0.0001712339
194.8027,-0.0001711613
194.9027,-0.0001710644
195.0027,-0.0001709692
195.1027,-0.0001708685
195.2027,-0.0001707686
195.3027,-0.000170698
195.4027,-0.0001706151
195.5027,-0.0001704956
195.6027,-0.0001704211
195.7027,-0.0001703138
195.8027,-0.000170213
195.9028,-0.0001701339
196.0028,-0.0001700303
196.1028,-0.0001699249
196.2028,-0.0001698655
196.3028,-0.0001697808
196.4028,-0.0001696574
196.5028,-0.0001695887
196.6028,-0.0001694973
196.7028,-0.0001694022
196.8028,-0.0001693664
196.9028,-0.0001692459
197.0028,-0.0001691451
197.1028,-0.0001690848
197.2028,-0.0001689925
197.3028,-0.0001689266
197.4028,-0.0001688268
197.5029,-0.0001687449
197.6029,-0.0001686554
197.7029,-0.0001685688
197.8029,-0.0001684897
197.9029,-0.0001683785
198.0029,-0.0001683183
198.1029,-0.0001682279
198.2029,-0.0001681035
198.3029,-0.0001680367
198.4029,-0.000167966
198.5029,-0.0001678606
198.6029,-0.0001677626
198.7029,-0.0001676779
198.8029,-0.0001675865
198.9029,-0.0001675037
199.0029,-0.0001674274
199.103,-0.0001673097
199.203,-0.0001672174
199.303,-0.000167174
199.403,-0.0001670601
199.503,-0.0001669659
199.603,-0.0001668802
199.703,-0.0001668181
199.803,-0.0001666994
199.903,-0.0001666401
200.003,-0.0001665431
200.103,-0.0001664423
200.203,-0.0001663736
200.303,-0.0001662917
200.403,-0.0001662248
200.503,-0.0001661137
200.603,-0.0001660242
200.703,-0.0001659592
200.8031,-0.0001658858
200.9031,-0.0001658038
201.0031,-0.0001657116
201.1031,-0.0001656268
201.2031,-0.0001655157
201.3031,-0.0001654309
201.4031,-0.0001654253
201.5031,-0.0001652925
201.6031,-0.0001651955
201.7031,-0.0001651258
201.8031,-0.0001650617
201.9031,-0.0001649742
202.0031,-0.0001649045
202.1031,-0.0001648047
202.2031,-0.0001647293
202.3031,-0.0001646719
202.4032,-0.0001645815
202.5032,-0.000164476
202.6032,-0.0001644317
202.7032,-0.0001643404
202.8032,-0.0001642453
202.9032,-0.0001641765
203.0032,-0.0001641153
203.1032,-0.0001639948
203.2032,-0.0001638987
203.3032,-0.0001638337
203.4032,-0.0001637527
203.5032,-0.0001637132
203.6032,-0.0001636435
203.7032,-0.0001635249
203.8032,-0.0001634702
203.9032,-0.0001634184
204.0033,-0.0001633035
204.1033,-0.0001632178
204.2033,-0.0001631397
204.3033,-0.0001630719
204.4033,-0.000163005
204.5033,-0.0001629005
204.6033,-0.0001628317
204.7033,-0.0001627423
204.8033,-0.0001626707
204.9033,-0.0001625718
205.0033,-0.0001625172
205.1033,-0.0001624456
205.2033,-0.0001623025
205.3033,-0.0001622422
205.4033,-0.0001621961
205.5033,-0.0001621094
205.6033,-0.0001620049
205.7034,-0.0001619446
205.8034,-0.0001618683
205.9034,-0.0001617459
206.0034,-0.0001617045
206.1034,-0.0001616254
206.2034,-0.0001615321
206.3034,-0.0001614455
206.4034,-0.0001613768
206.5034,-0.0001612995
206.6034,-0.0001612214
206.7034,-0.0001611121
206.8034,-0.0001610415
206.9034,-0.0001609671
207.0034,-0.0001609247
207.1034,-0.0001608174
207.2034,-0.0001607373
207.3035,-0.0001606582
207.4035,-0.0001605763
207.5035,-0.0001605217
207.6035,-0.0001604473
207.7035,-0.0001603559
207.8035,-0.0001602872
207.9035,-0.0001602062
208.0035,-0.0001601139
208.1035,-0.0001600649
208.2035,-0.0001599774
208.3035,-0.00015987
208.4035,-0.0001598173
208.5035,-0.000159756
208.6035,-0.0001596826
208.7035,-0.0001596101
208.8035,-0.0001595103
208.9035,-0.0001594829
209.0036,-0.0001593916
209.1036,-0.0001592786
209.2036,-0.0001592042
209.3036,-0.0001591194
209.4036,-0.0001590469
209.5036,-0.0001589697
209.6036,-0.0001588944
209.7036,-0.000158836
209.8036,-0.0001587371
209.9036,-0.000158657
210.0036,-0.0001585902
210.1036,-0.0001585092
210.2036,-0.0001584414
210.3036,-0.0001583651
210.4036,-0.0001582775
210.5036,-0.0001582041
210.6037,-0.0001581579
210.7037,-0.0001580534
210.8037,-0.0001579846
210.9037,-0.0001579037
211.0037,-0.0001578302
211.1037,-0.0001577643
211.2037,-0.0001576946
211.3037,-0.0001576155
211.4037,-0.000157527
211.5037,-0.0001574629
211.6037,-0.000157397
211.7037,-0.0001573038
211.8037,-0.0001572369
211.9037,-0.0001571474
212.0037,-0.000157074
212.1037,-0.0001570156
212.2038,-0.0001569384
212.3038,-0.0001568527
212.4038,-0.0001567755
212.5038,-0.0001566869
212.6038,-0.000156589
212.7038,-0.0001565711
212.8038,-0.0001564769
212.9038,-0.0001563602
213.0038,-0.0001563131
213.1038,-0.0001562462
213.2038,-0.0001561737
213.3038,-0.0001560965
213.4038,-0.0001560004
213.5038,-0.0001558996
213.6038,-0.0001558535
213.7038,-0.0001557942
213.8038,-0.0001557019
213.9039,-0.00015562
214.0039,-0.0001555635
214.1039,-0.0001554646
214.2039,-0.0001554005
214.3039,-0.0001553478
214.4039,-0.0001552564
214.5039,-0.000155167
214.6039,-0.0001551058
214.7039,-0.0001550097
214.8039,-0.0001549796
214.9039,-0.0001549033
215.0039,-0.000154811
215.1039,-0.0001547376
215.2039,-0.0001546763
215.3039,-0.0001546264
215.4039,-0.0001545473
215.504,-0.0001544597
215.604,-0.0001543769
215.704,-0.0001543025
215.804,-0.0001542601
215.904,-0.0001541622
216.004,-0.0001540934
216.104,-0.0001540096
216.204,-0.0001539286
216.304,-0.0001538665
216.404,-0.0001538213
216.504,-0.0001537186
216.604,-0.0001536188
216.704,-0.0001535698
216.804,-0.0001535001
216.904,-0.0001534163
217.004,-0.0001533692
217.104,-0.0001533052
217.2041,-0.000153228
217.3041,-0.0001531667
217.4041,-0.0001530811
217.5041,-0.0001530076
217.6041,-0.0001529351
217.7041,-0.0001528748
217.8041,-0.0001527637
217.9041,-0.0001527439
218.0041,-0.0001526516
218.1041,-0.000152548
218.2041,-0.0001525066
218.3041,-0.0001524501
218.4041,-0.0001523719
218.5041,-0.0001523013
218.6041,-0.0001522165
218.7041,-0.0001521393
218.8042,-0.0001520941
218.9042,-0.0001520404
219.0042,-0.0001519265
219.1042,-0.0001518483
219.2042,-0.0001518172
219.3042,-0.0001517315
219.4042,-0.0001516666
219.5042,-0.0001515762
219.6042,-0.0001515074
219.7042,-0.0001514669
219.8042,-0.0001513935
219.9042,-0.0001513097
220.0042,-0.0001512127
220.1042,-0.0001511703
220.2042,-0.000151078
220.3042,-0.0001510196
220.4043,-0.0001509857
220.5043,-0.0001508576
220.6043,-0.0001507804
220.7043,-0.0001507239
220.8043,-0.0001506335
220.9043,-0.0001505695
221.0043,-0.0001505129
221.1043,-0.0001504433
221.2043,-0.0001503491
221.3043,-0.0001503161
221.4043,-0.0001502361
221.5043,-0.0001501372
221.6043,-0.0001501042
221.7043,-0.0001500327
221.8043,-0.0001499309
221.9043,-0.0001498924
222.0043,-0.0001498481
222.1044,-0.0001497492
222.2044,-0.0001496692
222.3044,-0.0001496145
222.4044,-0.0001495571
222.5044,-0.000149478
222.6044,-0.0001494224
222.7044,-0.0001493179
222.8044,-0.0001492614
222.9044,-0.0001492247
223.0044,-0.0001491107
223.1044,-0.0001490514
223.2044,-0.0001489732
223.3044,-0.0001489082
223.4044,-0.0001488536
223.5044,-0.0001487886
223.6044,-0.0001486869
223.7045,-0.0001486351
223.8045,-0.0001485749
223.9045,-0.0001485005
224.0045,-0.0001484308
224.1045,-0.0001483592
224.2045,-0.0001482575
224.3045,-0.000148217
224.4045,-0.0001481558
224.5045,-0.0001480767
224.6045,-0.00014799
224.7045,-0.0001479401
224.8045,-0.0001478761
224.9045,-0.0001477866
225.0045,-0.000147748
225.1045,-0.0001476765
225.2045,-0.0001475747
225.3046,-0.0001475314
225.4046,-0.0001474542
225.5046,-0.000147393
225.6046,-0.0001473412
225.7046,-0.0001472499
225.8046,-0.0001471792
225.9046,-0.0001471472
226.0046,-0.0001470493
226.1046,-0.0001469758
226.2046,-0.0001469259
226.3046,-0.000146859
226.4046,-0.0001468072
226.5046,-0.0001467404
226.6046,-0.0001466547
226.7046,-0.0001465925
226.8046,-0.0001465567
226.9046,-0.0001464626
227.0047,-0.0001463496
227.1047,-0.0001463439
227.2047,-0.0001462799
227.3047,-0.0001461537
227.4047,-0.0001461188
227.5047,-0.0001460849
227.6047,-0.0001459785
227.7047,-0.0001458947
227.8047,-0.0001458702
227.9047,-0.0001458165
228.0047,-0.000145744
228.1047,-0.000145663
228.2047,-0.0001455858
228.3047,-0.0001455208
228.4047,-0.0001454568
228.5047,-0.0001453918
228.6048,-0.0001453344
228.7048,-0.0001452581
228.8048,-0.0001451828
228.9048,-0.0001451215
229.0048,-0.0001450537
229.1048,-0.0001450085
229.2048,-0.0001449285
229.3048,-0.0001448513
229.4048,-0.0001447891
229.5048,-0.0001447298
229.6048,-0.0001446742
229.7048,-0.0001445621
229.8048,-0.0001445122
229.9048,-0.0001444755
230.0048,-0.0001444162
230.1048,-0.0001443201
230.2048,-0.0001442872
230.3049,-0.0001442297
230.4049,-0.0001441403
230.5049,-0.0001440781
230.6049,-0.000144014
230.7049,-0.0001439265
230.8049,-0.0001438737
230.9049,-0.0001437862
231.0049,-0.0001437221
231.1049,-0.0001437061
231.2049,-0.0001436251
231.3049,-0.0001435309
231.4049,-0.0001434594
231.5049,-0.0001434066
231.6049,-0.0001433407
231.7049,-0.0001432899
231.8049,-0.0001432221
231.905,-0.0001431298
232.005,-0.0001430761
232.105,-0.000143012
232.205,-0.0001429405
232.305,-0.0001428576
232.405,-0.000142787
232.505,-0.0001427352
232.605,-0.0001427107
232.705,-0.0001426231
232.805,-0.0001425129
232.905,-0.0001424997
233.005,-0.0001424169
233.105,-0.0001423387
233.205,-0.0001422992
233.305,-0.0001422295
233.405,-0.0001421438
233.5051,-0.0001420826
233.6051,-0.0001420411
233.7051,-0.000141962
233.8051,-0.0001419065
233.9051,-0.0001418434
234.0051,-0.0001417822
234.1051,-0.0001417059
234.2051,-0.0001416531
234.3051,-0.0001415665
234.4051,-0.0001415185
234.5051,-0.0001414601
234.6051,-0.0001413885
234.7051,-0.0001412972
234.8051,-0.0001412651
234.9051,-0.0001412133
235.0051,-0.0001411295
235.1051,-0.000141057
235.2052,-0.0001409751
235.3052,-0.0001409195
235.4052,-0.0001408753
235.5052,-0.0001408385
235.6052,-0.0001407331
235.7052,-0.0001406841
235.8052,-0.0001406135
235.9052,-0.0001405541
236.0052,-0.0001404939
236.1052,-0.0001404308
236.2052,-0.0001403592
236.3052,-0.0001402905
236.4052,-0.0001402452
236.5052,-0.0001401699
236.6052,-0.0001401068
236.7052,-0.0001400343
236.8053,-0.0001399712
236.9053,-0.0001399307
237.0053,-0.0001398544
237.1053,-0.0001397725
237.2053,-0.0001397395
237.3053,-0.0001396633
237.4053,-0.0001395738
237.5053,-0.0001395568
237.6053,-0.0001394796
237.7053,-0.0001394081
237.8053,-0.0001393478
237.9053,-0.0001392969
238.0053,-0.000139232
238.1053,-0.0001391623
238.2053,-0.0001391105
238.3053,-0.0001390144
238.4053,-0.0001389927
238.5054,-0.000138956
238.6054,-0.0001388618
238.7054,-0.0001387912
238.8054,-0.0001387592
238.9054,-0.0001386923
239.0054,-0.0001386217
239.1054,-0.0001385605
239.2054,-0.0001385012
239.3054,-0.0001384531
239.4054,-0.00013839
239.5054,-0.0001382921
239.6054,-0.0001382394
239.7054,-0.0001382168
239.8054,-0.0001381198
239.9054,-0.0001380397
240.0054,-0.0001379936
240.1055,-0.000137955
240.2055,-0.0001378702
240.3055,-0.000137841
240.4055,-0.0001377478
240.5055,-0.0001377035
240.6055,-0.0001376367
240.7055,-0.0001375735
240.8055,-0.0001375001
240.9055,-0.0001374502
241.0055,-0.0001374003
241.1055,-0.0001373033
241.2055,-0.0001372609
241.3055,-0.0001372411
241.4055,-0.0001371422
241.5055,-0.0001370754
241.6055,-0.0001370707
241.7056,-0.0001370264
241.8056,-0.0001369275
241.9056,-0.0001368362
242.0056,-0.0001368117
242.1056,-0.0001367232
242.2056,-0.0001366789
242.3056,-0.0001365829
242.4056,-0.0001365405
242.5056,-0.0001365198
242.6056,-0.0001364171
242.7056,-0.0001363399
242.8056,-0.0001363041
242.9056,-0.0001362683
243.0056,-0.0001361807
243.1056,-0.0001361176
243.2056,-0.0001360668
243.3056,-0.0001359792
243.4057,-0.0001359688
243.5057,-0.0001358973
243.6057,-0.0001358059
243.7057,-0.0001357532
243.8057,-0.0001356722
243.9057,-0.0001356534
244.0057,-0.000135595
244.1057,-0.0001355168
244.2057,-0.00013545
244.3057,-0.0001354132
244.4057,-0.000135336
244.5057,-0.0001352616
244.6057,-0.0001352079
244.7057,-0.0001351863
244.8057,-0.0001350808
244.9057,-0.0001350347
245.0058,-0.0001349716
245.1058,-0.0001349254
245.2058,-0.000134883
245.3058,-0.000134836
245.4058,-0.0001347672
245.5058,-0.0001347145
245.6058,-0.0001346674
245.7058,-0.0001345986
245.8058,-0.0001345101
245.9058,-0.0001344527
246.0058,-0.0001343858
246.1058,-0.0001343293
246.2058,-0.0001342822
246.3058,-0.0001341909
246.4058,-0.0001341598
246.5058,-0.0001341325
246.6059,-0.0001340411
246.7059,-0.0001339969
246.8059,-0.000133914
246.9059,-0.0001338707
247.0059,-0.0001337972
247.1059,-0.0001337652
247.2059,-0.0001336899
247.3059,-0.0001336267
247.4059,-0.0001335646
247.5059,-0.0001334959
247.6059,-0.0001334789
247.7059,-0.0001334205
247.8059,-0.0001333263
247.9059,-0.0001332585
248.0059,-0.0001332369
248.1059,-0.0001331644
248.2059,-0.0001330853
248.306,-0.0001330429
248.406,-0.0001329751
248.506,-0.000132911
248.606,-0.000132864
248.706,-0.0001328027
248.806,-0.0001327152
248.906,-0.0001326737
249.006,-0.0001326135
249.106,-0.0001325428
249.206,-0.0001325221
249.306,-0.0001324374
249.406,-0.0001323554
249.506,-0.0001323319
249.606,-0.0001322904
249.706,-0.0001321812
249.806,-0.0001321219
249.9061,-0.0001321106
250.0061,-0.000132056
250.1061,-0.0001319957
250.2061,-0.000131927
250.3061,-0.0001318441
250.4061,-0.0001317857
250.5061,-0.000131765
250.6061,-0.0001316764
250.7061,-0.0001316162
250.8061,-0.0001315832
250.9061,-0.0001315041
251.0061,-0.0001314118
251.1061,-0.0001313647
251.2061,-0.0001313374
251.3061,-0.0001312903
251.4061,-0.0001312131
251.5061,-0.0001311359
251.6062,-0.0001310926
251.7062,-0.0001310577
251.8062,-0.0001309805
251.9062,-0.0001309108
252.0062,-0.0001308553
252.1062,-0.0001308006
252.2062,-0.0001307667
252.3062,-0.0001306989
252.4062,-0.0001306236
252.5062,-0.0001305398
252.6062,-0.0001305124
252.7062,-0.0001304663
252.8062,-0.0001303543
252.9062,-0.0001303203
253.0062,-0.0001302751
253.1062,-0.0001302299
253.2063,-0.0001301442
253.3063,-0.0001301075
253.4063,-0.0001300472
253.5063,-0.0001300077
253.6063,-0.0001299455
253.7063,-0.0001298702
253.8063,-0.0001298203
253.9063,-0.0001297675
254.0063,-0.000129712
254.1063,-0.0001296536
254.2063,-0.0001296009
254.3063,-0.00012955
254.4063,-0.0001295067
254.5063,-0.0001294257
254.6063,-0.0001293598
254.7063,-0.0001293221
254.8064,-0.000129276
254.9064,-0.0001291846
255.0064,-0.0001291592
255.1064,-0.0001291262
255.2064,-0.0001290443
255.3064,-0.0001289699
255.4064,-0.0001289482
255.5064,-0.000128919
255.6064,-0.0001288399
255.7064,-0.000128807
255.8064,-0.0001287128
255.9064,-0.0001286337
256.0064,-0.0001286516
256.1064,-0.0001285471
256.2064,-0.0001284717
256.3064,-0.0001284331
256.4064,-0.0001283823
256.5064,-0.0001283098
256.6064,-0.000128289
256.7065,-0.0001282165
256.8065,-0.0001281647
256.9065,-0.0001281252
257.0065,-0.0001280696
257.1065,-0.0001280018
257.2065,-0.0001279575
257.3065,-0.0001279255
257.4065,-0.0001278549
257.5065,-0.0001278012
257.6065,-0.0001277428
257.7065,-0.0001276816
257.8065,-0.0001276901
257.9065,-0.0001276279
258.0065,-0.000127562
258.1065,-0.0001275149
258.2065,-0.0001274801
258.3065,-0.0001274274
258.4066,-0.0001273859
258.5066,-0.0001273275
258.6066,-0.0001272691
258.7066,-0.0001272305
258.8066,-0.0001272136
258.9066,-0.0001271222
259.0066,-0.0001270685
259.1066,-0.0001270243
259.2066,-0.0001269659
259.3066,-0.0001269329
259.4066,-0.0001268689
259.5066,-0.0001268039
259.6066,-0.000126754
259.7066,-0.0001267107
259.8066,-0.0001266401
259.9066,-0.0001265986
260.0067,-0.0001265647
260.1067,-0.0001264837
260.2067,-0.0001264159
260.3067,-0.0001263839
260.4067,-0.0001263274
260.5067,-0.0001262681
260.6067,-0.0001262266
260.7067,-0.0001261381
260.8067,-0.0001261004
260.9067,-0.0001260797
261.0067,-0.0001259969
261.1067,-0.0001259479
261.2067,-0.000125897
261.3067,-0.0001258311
261.4067,-0.0001257906
261.5067,-0.0001257379
261.6068,-0.0001256823
261.7068,-0.0001256183
261.8068,-0.0001255665
261.9068,-0.0001255147
262.0068,-0.000125461
262.1068,-0.0001254243
262.2068,-0.0001253414
262.3068,-0.000125283
262.4068,-0.0001252557
262.5068,-0.0001252275
262.6068,-0.0001251531
262.7068,-0.0001250909
262.8068,-0.0001250419
262.9068,-0.0001250024
263.0068,-0.0001249402
263.1068,-0.0001248781
263.2068,-0.0001248517
263.3069,-0.0001247943
263.4069,-0.0001247359
263.5069,-0.0001246747
263.6069,-0.0001246276
263.7069,-0.0001245861
263.8069,-0.0001244957
263.9069,-0.0001244637
264.0069,-0.00012441
264.1069,-0.0001243582
264.2069,-0.000124314
264.3069,-0.0001242424
264.4069,-0.0001241925
264.5069,-0.0001241529
264.6069,-0.0001241068
264.7069,-0.0001240315
264.8069,-0.000124007
264.907,-0.0001239401
265.007,-0.0001238996
265.107,-0.0001238441
265.207,-0.0001238167
265.307,-0.000123716
265.407,-0.0001236924
265.507,-0.0001236472
265.607,-0.000123603
265.707,-0.0001235408
265.807,-0.0001234796
265.907,-0.0001234165
266.007,-0.0001233864
266.107,-0.0001233562
266.207,-0.0001232649
266.307,-0.000123199
266.407,-0.0001231566
266.507,-0.0001231283
266.6071,-0.0001230737
266.7071,-0.0001230087
266.8071,-0.0001229428
266.9071,-0.0001228863
267.0071,-0.0001228835
267.1071,-0.0001227997
267.2071,-0.0001227554
267.3071,-0.0001227074
267.4071,-0.0001226236
267.5071,-0.0001225746
267.6071,-0.0001225539
267.7071,-0.0001225162
267.8071,-0.0001224305
267.9071,-0.0001224032
268.0071,-0.0001223335
268.1071,-0.0001222855
268.2072,-0.0001222516
268.3072,-0.0001221932
268.4072,-0.0001221358
268.5072,-0.0001220868
268.6072,-0.0001220218
268.7072,-0.0001219917
268.8072,-0.0001219747
268.9072,-0.0001218937
269.0072,-0.0001218231
269.1072,-0.0001217883
269.2072,-0.0001217204
269.3072,-0.0001216715
269.4072,-0.0001216235
269.5072,-0.0001215858
269.6072,-0.0001214935
269.7072,-0.0001214379
269.8073,-0.0001214135
269.9073,-0.0001213588
270.0073,-0.0001213249
270.1073,-0.0001212571
270.2073,-0.0001211827
270.3073,-0.0001211516
270.4073,-0.0001211093
270.5073,-0.0001210546
270.6073,-0.0001210076
270.7073,-0.0001209567
270.8073,-0.0001208955
270.9073,-0.0001208475
271.0073,-0.0001208286
271.1073,-0.0001207552
271.2073,-0.0001206958
271.3073,-0.0001206666
271.4073,-0.0001206252
271.5074,-0.0001205923
271.6074,-0.0001205395
271.7074,-0.0001204792
271.8074,-0.0001204369
271.9074,-0.0001203983
272.0074,-0.0001203521
272.1074,-0.0001203154
272.2074,-0.0001202608
272.3074,-0.0001201883
272.4074,-0.0001201487
272.5074,-0.0001201412
272.6074,-0.0001200649
272.7074,-0.0001200009
272.8074,-0.0001199547
272.9074,-0.0001199039
273.0074,-0.0001198445
273.1075,-0.000119837
273.2075,-0.0001197645
273.3075,-0.0001197117
273.4075,-0.0001196778
273.5075,-0.0001196034
273.6075,-0.0001195601
273.7075,-0.0001195215
273.8075,-0.0001194603
273.9075,-0.0001193963
274.0075,-0.0001193727
274.1075,-0.0001193247
274.2075,-0.0001192644
274.3075,-0.0001192399
274.4075,-0.0001191721
274.5075,-0.00011911
274.6075,-0.0001190817
274.7076,-0.0001190459
274.8076,-0.000118981
274.9076,-0.0001189452
275.0076,-0.0001188924
275.1076,-0.0001187992
275.2076,-0.0001187757
275.3076,-0.0001187436
275.4076,-0.0001186664
275.5076,-0.0001186221
275.6076,-0.0001185656
275.7076,-0.0001185035
275.8076,-0.0001184715
275.9076,-0.0001184479
276.0076,-0.0001183491
276.1076,-0.0001183152
276.2076,-0.0001182925
276.3076,-0.00011822
276.4077,-0.0001181729
276.5077,-0.0001181287
276.6077,-0.0001180581
276.7077,-0.0001180345
276.8077,-0.0001180006
276.9077,-0.0001179469
277.0077,-0.0001178886
277.1077,-0.0001178452
277.2077,-0.0001177953
277.3077,-0.0001177397
277.4077,-0.0001177294
277.5077,-0.0001176456
277.6077,-0.000117591
277.7077,-0.000117591
277.8077,-0.0001175476
277.9077,-0.0001174676
278.0078,-0.0001174177
278.1078,-0.0001173828
278.2078,-0.0001173423
278.3078,-0.0001173226
278.4078,-0.0001172331
278.5078,-0.0001171644
278.6078,-0.0001171841
278.7078,-0.0001171559
278.8078,-0.0001170758
278.9078,-0.0001170061
279.0078,-0.0001169883
279.1078,-0.0001169233
279.2078,-0.0001168762
279.3078,-0.0001168225
279.4078,-0.0001167895
279.5078,-0.0001167848
279.6078,-0.0001167264
279.7079,-0.000116637
279.8079,-0.0001165993
279.9079,-0.0001166134
280.0079,-0.0001165193
280.1079,-0.0001164656
280.2079,-0.0001164147
280.3079,-0.0001163516
280.4079,-0.0001163224
280.5079,-0.0001162989
280.6079,-0.0001162104
280.7079,-0.0001161454
280.8079,-0.0001161106
280.9079,-0.0001160767
281.0079,-0.0001160333
281.1079,-0.0001159787
281.2079,-0.0001158968
281.308,-0.0001158676
281.408,-0.0001158497
281.508,-0.0001157828
281.608,-0.0001157292
281.708,-0.0001156915
281.808,-0.000115651
281.908,-0.0001155917
282.008,-0.0001155841
282.108,-0.0001155116
282.208,-0.0001154655
282.308,-0.0001154297
282.408,-0.0001153675
282.508,-0.0001153252
282.608,-0.0001153129
282.708,-0.0001152423
282.808,-0.0001151745
282.9081,-0.0001151491
283.0081,-0.000115118
283.1081,-0.0001150812
283.2081,-0.0001150181
283.3081,-0.00011494
283.4081,-0.0001149117
283.5081,-0.0001149127
283.6081,-0.0001148373
283.7081,-0.0001147808
283.8081,-0.0001147319
283.9081,-0.000114681
284.0081,-0.000114649
284.1081,-0.0001146123
284.2081,-0.0001145473
284.3081,-0.0001144757
284.4081,-0.0001144738
284.5081,-0.0001144277
284.6082,-0.0001143495
284.7082,-0.0001143194
284.8082,-0.0001142648
284.9082,-0.0001142233
285.0082,-0.0001142092
285.1082,-0.0001141433
285.2082,-0.0001140849
285.3082,-0.0001140576
285.4082,-0.000114018
285.5082,-0.0001139512
285.6082,-0.0001139182
285.7082,-0.0001138871
285.8082,-0.0001138108
285.9082,-0.000113793
286.0082,-0.0001137449
286.1082,-0.0001136837
286.2083,-0.0001136169
286.3083,-0.0001136206
286.4083,-0.0001135707
286.5083,-0.0001135217
286.6083,-0.0001134737
286.7083,-0.0001134219
286.8083,-0.0001133626
286.9083,-0.0001133447
287.0083,-0.0001132788
287.1083,-0.0001132411
287.2083,-0.0001132053
287.3083,-0.0001131384
287.4083,-0.0001130885
287.5083,-0.0001130631
287.6083,-0.0001130189
287.7083,-0.000112968
287.8083,-0.0001129228
287.9084,-0.0001128559
288.0084,-0.0001128239
288.1084,-0.0001128183
288.2084,-0.0001127382
288.3084,-0.0001126996
288.4084,-0.0001126516
288.5084,-0.0001126101
288.6084,-0.0001125584
288.7084,-0.000112532
288.8084,-0.0001124745
288.9084,-0.0001124199
289.0084,-0.0001123926
289.1084,-0.000112337
289.2084,-0.000112305
289.3084,-0.0001122796
289.4084,-0.0001122071
289.5085,-0.0001121666
289.6085,-0.0001121308
289.7085,-0.0001120526
289.8085,-0.0001120112
289.9085,-0.0001119943
290.0085,-0.000111949
290.1085,-0.0001118963
290.2085,-0.0001118558
290.3085,-0.0001118144
290.4085,-0.0001117663
290.5085,-0.0001117381
290.6085,-0.0001116976
290.7085,-0.0001116307
290.8085,-0.0001116006
290.9085,-0.0001115827
291.0085,-0.0001115337
291.1086,-0.0001114528
291.2086,-0.0001114452
291.3086,-0.0001113925
291.4086,-0.000111336
291.5086,-0.0001112927
291.6086,-0.0001112305
291.7086,-0.0001111825
291.8086,-0.0001111439
291.9086,-0.0001111015
292.0086,-0.0001110544
292.1086,-0.0001110158
292.2086,-0.0001109273
292.3086,-0.0001109056
292.4086,-0.0001108745
292.5086,-0.000110835
292.6086,-0.0001107766
292.7086,-0.0001107314
292.8087,-0.0001106796
292.9087,-0.0001106589
293.0087,-0.0001106193
293.1087,-0.0001105685
293.2087,-0.0001105101
293.3087,-0.0001104809
293.4087,-0.0001104394
293.5087,-0.0001104112
293.6087,-0.0001103754
293.7087,-0.0001103048
293.8087,-0.0001102737
293.9087,-0.0001102746
294.0087,-0.0001102134
294.1087,-0.0001101456
294.2087,-0.0001101343
294.3087,-0.0001101164
294.4088,-0.0001100439
294.5088,-0.0001099987
294.6088,-0.0001099742
294.7088,-0.0001099187
294.8088,-0.0001098923
294.9088,-0.0001098311
295.0088,-0.0001097661
295.1088,-0.0001097426
295.2088,-0.0001097096
295.3088,-0.0001096682
295.4088,-0.0001096117
295.5088,-0.0001095721
295.6088,-0.0001095279
295.7088,-0.0001094921
295.8088,-0.0001094488
295.9088,-0.0001093819
296.0089,-0.0001093433
296.1089,-0.0001093546
296.2089,-0.0001092971
296.3089,-0.0001092199
296.4089,-0.0001091907
296.5089,-0.0001091333
296.6089,-0.0001090984
296.7089,-0.0001090852
296.8089,-0.0001090306
296.9089,-0.0001089835
297.0089,-0.0001089346
297.1089,-0.0001088865
297.2089,-0.0001088442
297.3089,-0.0001088046
297.4089,-0.0001087707
297.5089,-0.0001087161
297.6089,-0.0001086972
297.709,-0.0001086511
297.809,-0.0001085993
297.909,-0.0001085842
298.009,-0.0001085174
298.109,-0.0001084552
298.209,-0.0001084524
298.309,-0.0001084072
298.409,-0.0001083582
298.509,-0.0001083064
298.609,-0.0001082876
298.709,-0.0001082386
298.809,-0.0001081765
298.909,-0.0001081397
299.009,-0.0001080983
299.109,-0.0001080682
299.209,-0.0001080324
299.3091,-0.0001079552
299.4091,-0.0001079363
299.5091,-0.0001079015
299.6091,-0.0001078535
299.7091,-0.0001078092
299.8091,-0.0001077706
299.9091,-0.000107731
300.0091,-0.0001076971
300.1091,-0.0001076566
300.2091,-0.0001076039
300.3091,-0.000107586
300.4091,-0.000107553
300.5091,-0.000107489
300.6091,-0.0001074363
300.7091,-0.0001074127
300.8091,-0.00010736
300.9091,-0.0001073091
301.0092,-0.0001072743
301.1092,-0.0001072187
301.2092,-0.0001071886
301.3092,-0.000107182
301.4092,-0.000107102
301.5092,-0.0001070492
301.6092,-0.000107053
301.7092,-0.0001069758
301.8092,-0.00010694
301.9092,-0.0001068976
302.0092,-0.0001068562
302.1092,-0.0001068383
302.2092,-0.0001067968
302.3092,-0.0001067347
302.4092,-0.0001066669
302.5092,-0.0001066725
302.6093,-0.0001066188
302.7093,-0.0001065511
302.8093,-0.00010652
302.9093,-0.0001064955
303.0093,-0.0001064493
303.1093,-0.0001064098
303.2093,-0.0001063636
303.3093,-0.0001063222
303.4093,-0.0001062789
303.5093,-0.0001062167
303.6093,-0.0001061696
303.7093,-0.0001061772
303.8093,-0.0001061734
303.9093,-0.0001060849
304.0093,-0.000106035
304.1093,-0.0001060378
304.2094,-0.0001059813
304.3094,-0.0001059389
304.4094,-0.0001059031
304.5094,-0.0001058287
304.6094,-0.0001058165
304.7094,-0.0001057977
304.8094,-0.0001057073
304.9094,-0.0001056602
305.0094,-0.0001056479
305.1094,-0.0001055924
305.2094,-0.0001055359
305.3094,-0.0001055095
305.4094,-0.0001054737
305.5094,-0.0001054144
305.6094,-0.0001053965
305.7094,-0.0001053136
305.8094,-0.0001053061
305.9095,-0.000105275
306.0095,-0.0001051837
306.1095,-0.0001052241
306.2095,-0.0001051893
306.3095,-0.0001051027
306.4095,-0.0001050716
306.5095,-0.0001050301
306.6095,-0.0001050075
306.7095,-0.0001049576
306.8095,-0.0001049087
306.9095,-0.000104855
307.0095,-0.000104822
307.1095,-0.0001047825
307.2095,-0.0001047203
307.3095,-0.0001047081
307.4095,-0.0001046779
307.5096,-0.0001046299
307.6096,-0.0001045743
307.7096,-0.0001045386
307.8096,-0.0001045065
307.9096,-0.000104466
308.0096,-0.0001044387
308.1096,-0.0001043568
308.2096,-0.0001043248
308.3096,-0.000104306
308.4096,-0.0001042692
308.5096,-0.0001042184
308.6096,-0.0001041732
308.7096,-0.0001041515
308.8096,-0.0001040847
308.9096,-0.0001041101
309.0096,-0.0001040451
309.1096,-0.0001039688
309.2097,-0.0001039519
309.3097,-0.0001039123
309.4097,-0.0001038859
309.5097,-0.0001038342
309.6097,-0.000103804
309.7097,-0.0001037428
309.8097,-0.0001037268
309.9097,-0.0001036712
310.0097,-0.0001036232
310.1097,-0.0001035884
310.2097,-0.0001035394
310.3097,-0.0001034857
310.4097,-0.0001034659
310.5097,-0.0001034433
310.6097,-0.0001033944
310.7097,-0.0001033586
310.8098,-0.0001033162
310.9098,-0.0001032625
311.0098,-0.0001032183
311.1098,-0.0001031872
311.2098,-0.0001031297
311.3098,-0.0001030987
311.4098,-0.0001030855
311.5098,-0.0001030082
311.6098,-0.0001029979
311.7098,-0.0001029452
311.8098,-0.0001029122
311.9098,-0.0001028726
312.0098,-0.0001028387
312.1098,-0.0001027578
312.2098,-0.0001027361
312.3098,-0.0001027314
312.4099,-0.0001026664
312.5099,-0.0001025807
312.6099,-0.0001025864
312.7099,-0.0001025364
312.8099,-0.0001025214
312.9099,-0.0001024799
313.0099,-0.0001024263
313.1099,-0.0001023895
313.2099,-0.0001023773
313.3099,-0.0001022972
313.4099,-0.0001022718
313.5099,-0.0001022426
313.6099,-0.0001022115
313.7099,-0.0001021673
313.8099,-0.0001021211
313.9099,-0.0001020825
314.0099,-0.0001020364
314.11,-0.0001020326
314.21,-0.0001019893
314.31,-0.0001019309
314.41,-0.0001018942
314.51,-0.0001018499
314.61,-0.0001018245
314.71,-0.0001018009
314.81,-0.000101751
314.91,-0.0001017124
315.01,-0.0001016738
315.11,-0.0001016418
315.21,-0.0001015947
315.31,-0.0001015749
315.41,-0.0001015429
315.51,-0.0001014553
315.61,-0.0001014516
315.7101,-0.0001014375
315.8101,-0.0001013593
315.9101,-0.0001013197
316.0101,-0.0001012821
316.1101,-0.0001012482
316.2101,-0.0001012284
316.3101,-0.0001012039
316.4101,-0.0001011351
316.5101,-0.0001010871
316.6101,-0.0001010834
316.7101,-0.0001010372
316.8101,-0.0001010127
316.9101,-0.0001009581
317.0101,-0.0001008894
317.1101,-0.0001008583
317.2101,-0.0001008573
317.3102,-0.000100814
317.4102,-0.0001007613
317.5102,-0.0001007151
317.6102,-0.0001006596
317.7102,-0.0001006558
317.8102,-0.000100637
317.9102,-0.0001005607
318.0102,-0.0001005117
318.1102,-0.0001004919
318.2102,-0.0001004486
318.3102,-0.0001004157
318.4102,-0.0001003968
318.5102,-0.0001003497
318.6102,-0.0001003017
318.7102,-0.0001002819
318.8102,-0.0001002462
318.9102,-0.0001002038
319.0103,-0.0001001765
319.1103,-0.0001001313
319.2103,-0.0001000719
319.3103,-0.0001000559
319.4103,-0.000100022
319.5103,-9.996363E-05
319.6103,-9.991183E-05
319.7103,-9.989489E-05
319.8103,-9.986381E-05
319.9103,-9.981578E-05
320.0103,-9.979506E-05
320.1103,-9.978376E-05
320.2103,-9.975834E-05
320.3103,-9.973009E-05
320.4103,-9.964627E-05
320.5103,-9.963026E-05
320.6104,-9.961425E-05
320.7104,-9.95681E-05
320.8104,-9.949371E-05
320.9104,-9.95069E-05
321.0104,-9.947299E-05
321.1104,-9.941649E-05
321.2104,-9.939106E-05
321.3104,-9.934491E-05
321.4104,-9.927712E-05
321.5104,-9.9295E-05
321.6104,-9.924509E-05
321.7104,-9.919424E-05
321.8104,-9.915751E-05
321.9104,-9.909912E-05
322.0104,-9.904733E-05
322.1104,-9.907463E-05
322.2104,-9.904356E-05
322.3105,-9.895692E-05
322.4105,-9.895598E-05
322.5105,-9.892208E-05
322.6105,-9.886557E-05
322.7105,-9.883827E-05
322.8105,-9.882791E-05
322.9105,-9.878647E-05
323.0105,-9.874316E-05
323.1105,-9.871207E-05
323.2105,-9.867158E-05
323.3105,-9.861789E-05
323.4105,-9.860189E-05
323.5105,-9.854915E-05
323.6105,-9.852184E-05
323.7105,-9.847852E-05
323.8105,-9.839847E-05
323.9106,-9.836457E-05
324.0106,-9.837776E-05
324.1106,-9.833538E-05
324.2106,-9.829112E-05
324.3106,-9.825344E-05
324.4106,-9.820447E-05
324.5106,-9.817057E-05
324.6106,-9.814609E-05
324.7106,-9.810277E-05
324.8106,-9.806322E-05
324.9106,-9.804627E-05
325.0106,-9.7986E-05
325.1106,-9.795492E-05
325.2106,-9.794738E-05
325.3106,-9.788052E-05
325.4106,-9.78259E-05
325.5107,-9.781554E-05
325.6107,-9.780048E-05
325.7107,-9.775527E-05
325.8107,-9.773832E-05
325.9107,-9.768653E-05
326.0107,-9.763285E-05
326.1107,-9.762249E-05
326.2107,-9.760554E-05
326.3107,-9.753868E-05
326.4107,-9.752925E-05
326.5107,-9.746898E-05
326.6107,-9.74106E-05
326.7107,-9.742191E-05
326.8107,-9.737764E-05
326.9107,-9.732867E-05
327.0107,-9.731831E-05
327.1107,-9.724862E-05
327.2108,-9.721283E-05
327.3108,-9.722602E-05
327.4108,-9.718458E-05
327.5108,-9.712808E-05
327.6108,-9.709418E-05
327.7108,-9.706122E-05
327.8108,-9.70292E-05
327.9108,-9.699059E-05
328.0108,-9.696422E-05
328.1108,-9.693878E-05
328.2108,-9.694068E-05
328.3108,-9.686722E-05
328.4108,-9.680319E-05
328.5108,-9.680884E-05
328.6108,-9.679376E-05
328.7108,-9.672596E-05
328.8109,-9.668829E-05
328.9109,-9.667699E-05
329.0109,-9.661484E-05
329.1109,-9.660918E-05
329.2109,-9.65913E-05
329.3109,-9.651406E-05
329.4109,-9.6499E-05
329.5109,-9.646227E-05
329.6109,-9.641237E-05
329.7109,-9.638506E-05
329.8109,-9.63907E-05
329.9109,-9.63342E-05
330.0109,-9.62777E-05
330.1109,-9.626262E-05
330.2109,-9.623908E-05
330.3109,-9.620141E-05
330.4109,-9.619294E-05
330.511,-9.612324E-05
330.611,-9.608652E-05
330.711,-9.606863E-05
330.811,-9.605074E-05
330.911,-9.5998E-05
331.011,-9.595939E-05
331.111,-9.591324E-05
331.211,-9.588499E-05
331.311,-9.587275E-05
331.411,-9.582567E-05
331.511,-9.580777E-05
331.611,-9.577387E-05
331.711,-9.574751E-05
331.811,-9.567687E-05
331.911,-9.566839E-05
332.011,-9.563826E-05
332.1111,-9.557611E-05
332.2111,-9.555727E-05
332.3111,-9.553279E-05
332.4111,-9.551302E-05
332.5111,-9.545651E-05
332.6111,-9.540941E-05
332.7111,-9.537928E-05
332.8111,-9.538023E-05
332.9111,-9.53256E-05
333.0111,-9.527287E-05
333.1111,-9.525403E-05
333.2111,-9.524461E-05
333.3111,-9.520035E-05
333.4111,-9.515986E-05
333.5111,-9.511465E-05
333.6111,-9.510147E-05
333.7112,-9.508923E-05
333.8112,-9.501295E-05
333.9112,-9.49668E-05
334.0112,-9.495456E-05
334.1112,-9.495363E-05
334.2112,-9.488016E-05
334.3112,-9.484062E-05
334.4112,-9.480294E-05
334.5112,-9.477846E-05
334.6112,-9.475868E-05
334.7112,-9.472761E-05
334.8112,-9.464191E-05
334.9112,-9.463437E-05
335.0112,-9.462684E-05
335.1112,-9.455998E-05
335.2112,-9.454114E-05
335.3112,-9.452042E-05
335.4113,-9.444226E-05
335.5113,-9.443096E-05
335.6113,-9.440647E-05
335.7113,-9.438011E-05
335.8113,-9.433679E-05
335.9113,-9.430666E-05
336.0113,-9.425486E-05
336.1113,-9.42332E-05
336.2113,-9.421624E-05
336.3113,-9.416162E-05
336.4113,-9.411266E-05
336.5113,-9.409476E-05
336.6113,-9.407687E-05
336.7113,-9.402884E-05
336.8113,-9.401E-05
336.9113,-9.395916E-05
337.0114,-9.392431E-05
337.1114,-9.392054E-05
337.2114,-9.387722E-05
337.3114,-9.384238E-05
337.4114,-9.381884E-05
337.5114,-9.37322E-05
337.6114,-9.371995E-05
337.7114,-9.371807E-05
337.8114,-9.369547E-05
337.9114,-9.361353E-05
338.0114,-9.358906E-05
338.1114,-9.357964E-05
338.2114,-9.353066E-05
338.3114,-9.351843E-05
338.4114,-9.347605E-05
338.5114,-9.342613E-05
338.6115,-9.341295E-05
338.7115,-9.338093E-05
338.8115,-9.333196E-05
338.9115,-9.332065E-05
339.0115,-9.327922E-05
339.1115,-9.324909E-05
339.2115,-9.32246E-05
339.3115,-9.317846E-05
339.4115,-9.314644E-05
339.5115,-9.311348E-05
339.6115,-9.30777E-05
339.7115,-9.305321E-05
339.8115,-9.302684E-05
339.9115,-9.301177E-05
340.0115,-9.297693E-05
340.1115,-9.292136E-05
340.2115,-9.28997E-05
340.3116,-9.285357E-05
340.4116,-9.284038E-05
340.5116,-9.282719E-05
340.6116,-9.274996E-05
340.7116,-9.2701E-05
340.8116,-9.271419E-05
340.9116,-9.271701E-05
341.0116,-9.265392E-05
341.1116,-9.260306E-05
341.2116,-9.258893E-05
341.3116,-9.253243E-05
341.4116,-9.251454E-05
341.5116,-9.249664E-05
341.6116,-9.242696E-05
341.7116,-9.239399E-05
341.8116,-9.23714E-05
341.9117,-9.233467E-05
342.0117,-9.231113E-05
342.1117,-9.229794E-05
342.2117,-9.222637E-05
342.3117,-9.22E-05
342.4117,-9.218023E-05
342.5117,-9.21256E-05
342.6117,-9.20917E-05
342.7117,-9.204743E-05
342.8117,-9.202013E-05
342.9117,-9.197775E-05
343.0117,-9.194385E-05
343.1117,-9.1909E-05
343.2117,-9.189959E-05
343.3117,-9.184026E-05
343.4117,-9.179128E-05
343.5117,-9.181294E-05
343.6118,-9.178658E-05
343.7118,-9.170371E-05
343.8118,-9.166039E-05
343.9118,-9.168016E-05
344.0118,-9.162931E-05
344.1118,-9.157092E-05
344.2118,-9.155679E-05
344.3118,-9.152761E-05
344.4118,-9.147769E-05
344.5118,-9.145415E-05
344.6118,-9.141365E-05
344.7118,-9.13741E-05
344.8118,-9.13581E-05
344.9118,-9.132984E-05
345.0118,-9.126862E-05
345.1118,-9.124697E-05
345.2119,-9.124132E-05
345.3119,-9.121683E-05
345.4119,-9.118387E-05
345.5119,-9.113772E-05
345.6119,-9.110194E-05
345.7119,-9.109723E-05
345.8119,-9.105579E-05
345.9119,-9.100494E-05
346.0119,-9.098046E-05
346.1119,-9.094938E-05
346.2119,-9.089475E-05
346.3119,-9.090135E-05
346.4119,-9.088817E-05
346.5119,-9.080906E-05
346.6119,-9.076291E-05
346.7119,-9.076669E-05
346.812,-9.072713E-05
346.912,-9.070641E-05
347.012,-9.068569E-05
347.112,-9.065179E-05
347.212,-9.061318E-05
347.312,-9.058022E-05
347.412,-9.051713E-05
347.512,-9.05143E-05
347.612,-9.04964E-05
347.712,-9.045121E-05
347.812,-9.038152E-05
347.912,-9.040882E-05
348.012,-9.038716E-05
348.112,-9.033349E-05
348.212,-9.032784E-05
348.312,-9.027416E-05
348.412,-9.021672E-05
348.5121,-9.021295E-05
348.6121,-9.019976E-05
348.7121,-9.014231E-05
348.8121,-9.013007E-05
348.9121,-9.006415E-05
349.0121,-9.004249E-05
349.1121,-9.003589E-05
349.2121,-9.001989E-05
349.3121,-8.993514E-05
349.4121,-8.992572E-05
349.5121,-8.991159E-05
349.6121,-8.987581E-05
349.7121,-8.983343E-05
349.8121,-8.979859E-05
349.9121,-8.975997E-05
350.0121,-8.973549E-05
350.1122,-8.973078E-05
350.2122,-8.966203E-05
350.3122,-8.96206E-05
350.4122,-8.9598E-05
350.5122,-8.955655E-05
350.6122,-8.955091E-05
350.7122,-8.951701E-05
350.8122,-8.945673E-05
350.9122,-8.942095E-05
351.0122,-8.943319E-05
351.1122,-8.938422E-05
351.2122,-8.936633E-05
351.3122,-8.930417E-05
351.4122,-8.925427E-05
351.5122,-8.925991E-05
351.6122,-8.924108E-05
351.7122,-8.917704E-05
351.8123,-8.916479E-05
351.9123,-8.912713E-05
352.0123,-8.907627E-05
352.1123,-8.906874E-05
352.2123,-8.90339E-05
352.3123,-8.89661E-05
352.4123,-8.894726E-05
352.5123,-8.893219E-05
352.6123,-8.890676E-05
352.7123,-8.885779E-05
352.8123,-8.884649E-05
352.9123,-8.880788E-05
353.0123,-8.87608E-05
353.1123,-8.87721E-05
353.2123,-8.873066E-05
353.3123,-8.870241E-05
353.4124,-8.869111E-05
353.5124,-8.863743E-05
353.6124,-8.858752E-05
353.7124,-8.859411E-05
353.8124,-8.853572E-05
353.9124,-8.848675E-05
354.0124,-8.849712E-05
354.1124,-8.846698E-05
354.2124,-8.838599E-05
354.3124,-8.837845E-05
354.4124,-8.839634E-05
354.5124,-8.831442E-05
354.6124,-8.827393E-05
354.7124,-8.829087E-05
354.8124,-8.830499E-05
354.9124,-8.823531E-05
355.0125,-8.820517E-05
355.1125,-8.821083E-05
355.2125,-8.818351E-05
355.3125,-8.811665E-05
355.4125,-8.809217E-05
355.5125,-8.808087E-05
355.6125,-8.806297E-05
355.7125,-8.801778E-05
355.8125,-8.796503E-05
355.9125,-8.794337E-05
356.0125,-8.790194E-05
356.1125,-8.789251E-05
356.2125,-8.785579E-05
356.3125,-8.781153E-05
356.4125,-8.775126E-05
356.5125,-8.778328E-05
356.6125,-8.77183E-05
356.7126,-8.768251E-05
356.8126,-8.76844E-05
356.9126,-8.762884E-05
357.0126,-8.759494E-05
357.1126,-8.757328E-05
357.2126,-8.755444E-05
357.3126,-8.754784E-05
357.4126,-8.750358E-05
357.5126,-8.743483E-05
357.6126,-8.743955E-05
357.7126,-8.741976E-05
357.8126,-8.737834E-05
357.9126,-8.734538E-05
358.0126,-8.732183E-05
358.1126,-8.731147E-05
358.2126,-8.723708E-05
358.3127,-8.724932E-05
358.4127,-8.72173E-05
358.5127,-8.720506E-05
358.6127,-8.71834E-05
358.7127,-8.714667E-05
358.8127,-8.713348E-05
358.9127,-8.709487E-05
359.0127,-8.707604E-05
359.1127,-8.70233E-05
359.2127,-8.701106E-05
359.3127,-8.698563E-05
359.4127,-8.6915E-05
359.5127,-8.691406E-05
359.6127,-8.692159E-05
359.7127,-8.684343E-05
359.8127,-8.68133E-05
359.9128,-8.683024E-05
360.0128,-8.677845E-05
360.1128,-8.67615E-05
360.2128,-8.674173E-05
360.3128,-8.669747E-05
360.4128,-8.669464E-05
360.5128,-8.667392E-05
360.6128,-8.660894E-05
360.7128,-8.655715E-05
360.8128,-8.660422E-05
360.9128,-8.658916E-05
361.0128,-8.654208E-05
361.1128,-8.651571E-05
361.2128,-8.651665E-05
361.3128,-8.64592E-05
361.4128,-8.645732E-05
361.5128,-8.641965E-05
361.6129,-8.635655E-05
361.7129,-8.636409E-05
361.8129,-8.632171E-05
361.9129,-8.628028E-05
362.0129,-8.627179E-05
362.1129,-8.623884E-05
362.2129,-8.619081E-05
362.3129,-8.618704E-05
362.4129,-8.61522E-05
362.5129,-8.612865E-05
362.6129,-8.610512E-05
362.7129,-8.607121E-05
362.8129,-8.606745E-05
362.9129,-8.602695E-05
363.0129,-8.599964E-05
363.1129,-8.596856E-05
363.213,-8.597045E-05
363.313,-8.593655E-05
363.413,-8.588475E-05
363.513,-8.587816E-05
363.613,-8.587816E-05
363.713,-8.58226E-05
363.813,-8.58E-05
363.913,-8.57708E-05
364.013,-8.573878E-05
364.113,-8.570017E-05
364.213,-8.56785E-05
364.313,-8.564931E-05
364.413,-8.563331E-05
364.513,-8.560977E-05
364.613,-8.555891E-05
364.713,-8.551653E-05
364.813,-8.55137E-05
364.9131,-8.547133E-05
365.0131,-8.545344E-05
365.1131,-8.540824E-05
365.2131,-8.539882E-05
365.3131,-8.536114E-05
365.4131,-8.535455E-05
365.5131,-8.529523E-05
365.6131,-8.524908E-05
365.7131,-8.528392E-05
365.8131,-8.526603E-05
365.9131,-8.52067E-05
366.0131,-8.518975E-05
366.1131,-8.517656E-05
366.2131,-8.514454E-05
366.3131,-8.512384E-05
366.4131,-8.510688E-05
366.5132,-8.506733E-05
366.6132,-8.505319E-05
366.7132,-8.502871E-05
366.8132,-8.499105E-05
366.9132,-8.496751E-05
367.0132,-8.495244E-05
367.1132,-8.491194E-05
367.2132,-8.488839E-05
367.3132,-8.483943E-05
367.4132,-8.481494E-05
367.5132,-8.480929E-05
367.6132,-8.481589E-05
367.7132,-8.473961E-05
367.8132,-8.470476E-05
367.9132,-8.472076E-05
368.0132,-8.467275E-05
368.1133,-8.466991E-05
368.2133,-8.462001E-05
368.3133,-8.459081E-05
368.4133,-8.459175E-05
368.5133,-8.458233E-05
368.6133,-8.449098E-05
368.7133,-8.448817E-05
368.8133,-8.449946E-05
368.9133,-8.444484E-05
369.0133,-8.442036E-05
369.1133,-8.440622E-05
369.2133,-8.439115E-05
369.3133,-8.437609E-05
369.4133,-8.433936E-05
369.5133,-8.428381E-05
369.6133,-8.424519E-05
369.7133,-8.426121E-05
369.8134,-8.418492E-05
369.9134,-8.417833E-05
370.0134,-8.416044E-05
370.1134,-8.409734E-05
370.2134,-8.40785E-05
370.3134,-8.409264E-05
370.4134,-8.404743E-05
370.5134,-8.400223E-05
370.6134,-8.398716E-05
370.7134,-8.394761E-05
370.8134,-8.391465E-05
370.9134,-8.392595E-05
371.0134,-8.388262E-05
371.1134,-8.380823E-05
371.2134,-8.384872E-05
371.3134,-8.382518E-05
371.4135,-8.376962E-05
371.5135,-8.373289E-05
371.6135,-8.369993E-05
371.7135,-8.368392E-05
371.8135,-8.368203E-05
371.9135,-8.362836E-05
372.0135,-8.358504E-05
372.1135,-8.35728E-05
372.2135,-8.355208E-05
372.3135,-8.350876E-05
372.4135,-8.350217E-05
372.5135,-8.345602E-05
372.6135,-8.343719E-05
372.7135,-8.339951E-05
372.8135,-8.338068E-05
372.9135,-8.334019E-05
373.0135,-8.334301E-05
373.1136,-8.332606E-05
373.2136,-8.327615E-05
373.3136,-8.323565E-05
373.4136,-8.323095E-05
373.5136,-8.320835E-05
373.6136,-8.320552E-05
373.7136,-8.31509E-05
373.8136,-8.311794E-05
373.9136,-8.311323E-05
374.0136,-8.310287E-05
374.1136,-8.304165E-05
374.2136,-8.30153E-05
374.3136,-8.303225E-05
374.4136,-8.298139E-05
374.5136,-8.294654E-05
374.6136,-8.294183E-05
374.7137,-8.291641E-05
374.8137,-8.288911E-05
374.9137,-8.290606E-05
375.0137,-8.286932E-05
375.1137,-8.281565E-05
375.2137,-8.282695E-05
375.3137,-8.27987E-05
375.4137,-8.27469E-05
375.5137,-8.273654E-05
375.6137,-8.271583E-05
375.7137,-8.269134E-05
375.8137,-8.267344E-05
375.9137,-8.266214E-05
376.0137,-8.25934E-05
376.1137,-8.257738E-05
376.2137,-8.258868E-05
376.3138,-8.252747E-05
376.4138,-8.248792E-05
376.5138,-8.246061E-05
376.6138,-8.244178E-05
376.7138,-8.24446E-05
376.8138,-8.238339E-05
376.9138,-8.236361E-05
377.0138,-8.232782E-05
377.1138,-8.23316E-05
377.2138,-8.227415E-05
377.3138,-8.22393E-05
377.4138,-8.221859E-05
377.5138,-8.220541E-05
377.6138,-8.219881E-05
377.7138,-8.215549E-05
377.8138,-8.209052E-05
377.9138,-8.21037E-05
378.0139,-8.209523E-05
378.1139,-8.20472E-05
378.2139,-8.200952E-05
378.3139,-8.199822E-05
378.4139,-8.194643E-05
378.5139,-8.196149E-05
378.6139,-8.194171E-05
378.7139,-8.188239E-05
378.8139,-8.187109E-05
378.9139,-8.183719E-05
379.0139,-8.182118E-05
379.1139,-8.182118E-05
379.2139,-8.178916E-05
379.3139,-8.172512E-05
379.4139,-8.172135E-05
379.5139,-8.170911E-05
379.614,-8.166673E-05
379.714,-8.163848E-05
379.814,-8.162529E-05
379.914,-8.161589E-05
380.014,-8.15848E-05
380.114,-8.156314E-05
380.214,-8.153772E-05
380.314,-8.148781E-05
380.414,-8.146991E-05
380.514,-8.146332E-05
380.614,-8.142753E-05
380.714,-8.138139E-05
380.814,-8.135974E-05
380.914,-8.137009E-05
381.014,-8.132394E-05
381.114,-8.126179E-05
381.2141,-8.123542E-05
381.3141,-8.125991E-05
381.4141,-8.120528E-05
381.5141,-8.116385E-05
381.6141,-8.115537E-05
381.7141,-8.112524E-05
381.8141,-8.110829E-05
381.9141,-8.10791E-05
382.0141,-8.104613E-05
382.1141,-8.101223E-05
382.2141,-8.099811E-05
382.3141,-8.096985E-05
382.4141,-8.092936E-05
382.5141,-8.092465E-05
382.6141,-8.090675E-05
382.7141,-8.085025E-05
382.8141,-8.082671E-05
382.9142,-8.082765E-05
383.0142,-8.079186E-05
383.1142,-8.07429E-05
383.2142,-8.071841E-05
383.3142,-8.071277E-05
383.4142,-8.071087E-05
383.5142,-8.06459E-05
383.6142,-8.063177E-05
383.7142,-8.063083E-05
383.8142,-8.060352E-05
383.9142,-8.05423E-05
384.0142,-8.05536E-05
384.1142,-8.053289E-05
384.2142,-8.049145E-05
384.3142,-8.045002E-05
384.4142,-8.043118E-05
384.5143,-8.041329E-05
384.6143,-8.038786E-05
384.7143,-8.038786E-05
384.8143,-8.031629E-05
384.9143,-8.030499E-05
385.0143,-8.031723E-05
385.1143,-8.026826E-05
385.2143,-8.022023E-05
385.3143,-8.020517E-05
385.4143,-8.019481E-05
385.5143,-8.017974E-05
385.6143,-8.013736E-05
385.7143,-8.011005E-05
385.8143,-8.007615E-05
385.9143,-8.007145E-05
386.0143,-8.004413E-05
386.1143,-8.000834E-05
386.2144,-7.999045E-05
386.3144,-7.996503E-05
386.4144,-7.996032E-05
386.5144,-7.993395E-05
386.6144,-7.98765E-05
386.7144,-7.986237E-05
386.8144,-7.985202E-05
386.9144,-7.981246E-05
387.0144,-7.978515E-05
387.1144,-7.977385E-05
387.2144,-7.971358E-05
387.3144,-7.971735E-05
387.4144,-7.97117E-05
387.5144,-7.965614E-05
387.6144,-7.96147E-05
387.7144,-7.962883E-05
387.8145,-7.960905E-05
387.9145,-7.957515E-05
388.0145,-7.955066E-05
388.1145,-7.951864E-05
388.2145,-7.948569E-05
388.3145,-7.948004E-05
388.4145,-7.945461E-05
388.5145,-7.942635E-05
388.6145,-7.941412E-05
388.7145,-7.93529E-05
388.8145,-7.934631E-05
388.9145,-7.934725E-05
389.0145,-7.934348E-05
389.1145,-7.927945E-05
389.2145,-7.925685E-05
389.3145,-7.92446E-05
389.4146,-7.921258E-05
389.5146,-7.918527E-05
389.6146,-7.916737E-05
389.7146,-7.912501E-05
389.8146,-7.910334E-05
389.9146,-7.908451E-05
390.0146,-7.904684E-05
390.1146,-7.903083E-05
390.2146,-7.900634E-05
390.3146,-7.89875E-05
390.4146,-7.897244E-05
390.5146,-7.89131E-05
390.6146,-7.89131E-05
390.7146,-7.887827E-05
390.8146,-7.886979E-05
390.9146,-7.882082E-05
391.0146,-7.880952E-05
391.1147,-7.880104E-05
391.2147,-7.877562E-05
391.3147,-7.876055E-05
391.4147,-7.872571E-05
391.5147,-7.872665E-05
391.6147,-7.869651E-05
391.7147,-7.867485E-05
391.8147,-7.864378E-05
391.9147,-7.863435E-05
392.0147,-7.860894E-05
392.1147,-7.859575E-05
392.2147,-7.856467E-05
392.3147,-7.851946E-05
392.4147,-7.849781E-05
392.5147,-7.848462E-05
392.6147,-7.847991E-05
392.7148,-7.844225E-05
392.8148,-7.840081E-05
392.9148,-7.84074E-05
393.0148,-7.838009E-05
393.1148,-7.834053E-05
393.2148,-7.832077E-05
393.3148,-7.829439E-05
393.4148,-7.82652E-05
393.5148,-7.822376E-05
393.6148,-7.820681E-05
393.7148,-7.81795E-05
393.8148,-7.814843E-05
393.9148,-7.810039E-05
394.0148,-7.809757E-05
394.1148,-7.808438E-05
394.2148,-7.804389E-05
394.3148,-7.799869E-05
394.4149,-7.800999E-05
394.5149,-7.799022E-05
394.6149,-7.796573E-05
394.7149,-7.792241E-05
394.8149,-7.788945E-05
394.9149,-7.786402E-05
395.0149,-7.787438E-05
395.1149,-7.782259E-05
395.2149,-7.778586E-05
395.3149,-7.777267E-05
395.4149,-7.776043E-05
395.5149,-7.772935E-05
395.6149,-7.769922E-05
395.7149,-7.767944E-05
395.8149,-7.762389E-05
395.9149,-7.762483E-05
396.015,-7.76286E-05
396.115,-7.757303E-05
396.215,-7.755325E-05
396.315,-7.753629E-05
396.415,-7.749769E-05
396.515,-7.751559E-05
396.615,-7.745626E-05
396.715,-7.742988E-05
396.815,-7.739598E-05
396.915,-7.738562E-05
397.015,-7.734889E-05
397.115,-7.736585E-05
397.215,-7.732159E-05
397.315,-7.726508E-05
397.415,-7.726226E-05
397.515,-7.722741E-05
397.6151,-7.721705E-05
397.7151,-7.719727E-05
397.8151,-7.716714E-05
397.9151,-7.714266E-05
398.0151,-7.710216E-05
398.1151,-7.710216E-05
398.2151,-7.706355E-05
398.3151,-7.706544E-05
398.4151,-7.702777E-05
398.5151,-7.697879E-05
398.6151,-7.697691E-05
398.7151,-7.695337E-05
398.8151,-7.692983E-05
398.9151,-7.692041E-05
399.0151,-7.690251E-05
399.1151,-7.685731E-05
399.2151,-7.681116E-05
399.3152,-7.683376E-05
399.4152,-7.682059E-05
399.5152,-7.67848E-05
399.6152,-7.676879E-05
399.7152,-7.675373E-05
399.8152,-7.671511E-05
399.9152,-7.669156E-05
400.0152,-7.665296E-05
400.1152,-7.66426E-05
400.2152,-7.66313E-05
400.3152,-7.657574E-05
400.4152,-7.657479E-05
400.5152,-7.655691E-05
400.6152,-7.652018E-05
400.7152,-7.649286E-05
400.8152,-7.647968E-05
400.9153,-7.6426E-05
401.0153,-7.642788E-05
401.1153,-7.643823E-05
401.2153,-7.637985E-05
401.3153,-7.63403E-05
401.4153,-7.636573E-05
401.5153,-7.636667E-05
401.6153,-7.631582E-05
401.7153,-7.627626E-05
401.8153,-7.626213E-05
401.9153,-7.622635E-05
402.0153,-7.6232E-05
402.1153,-7.620845E-05
402.2153,-7.618586E-05
402.3153,-7.616891E-05
402.4153,-7.613501E-05
402.5154,-7.61011E-05
402.6154,-7.60964E-05
402.7154,-7.607756E-05
402.8154,-7.604365E-05
402.9154,-7.599751E-05
403.0154,-7.599091E-05
403.1154,-7.599469E-05
403.2154,-7.594854E-05
403.3154,-7.591087E-05
403.4154,-7.588262E-05
403.5154,-7.587602E-05
403.6154,-7.584588E-05
403.7154,-7.582517E-05
403.8154,-7.582517E-05
403.9154,-7.57696E-05
404.0154,-7.576208E-05
404.1154,-7.57489E-05
404.2155,-7.572159E-05
404.3155,-7.567544E-05
404.4155,-7.569615E-05
404.5155,-7.568579E-05
404.6155,-7.563683E-05
404.7155,-7.560293E-05
404.8155,-7.561423E-05
404.9155,-7.558973E-05
405.0155,-7.554454E-05
405.1155,-7.554265E-05
405.2155,-7.552006E-05
405.3155,-7.547673E-05
405.4155,-7.546732E-05
405.5155,-7.545601E-05
405.6155,-7.542211E-05
405.7155,-7.538257E-05
405.8156,-7.536278E-05
405.9156,-7.535431E-05
406.0156,-7.535054E-05
406.1156,-7.530252E-05
406.2156,-7.525731E-05
406.3156,-7.525731E-05
406.4156,-7.525449E-05
406.5156,-7.52074E-05
406.6156,-7.518198E-05
406.7156,-7.51669E-05
406.8156,-7.513112E-05
406.9156,-7.513865E-05
407.0156,-7.510004E-05
407.1156,-7.506048E-05
407.2156,-7.503882E-05
407.3156,-7.503601E-05
407.4156,-7.50021E-05
407.5157,-7.497855E-05
407.6157,-7.496255E-05
407.7157,-7.495125E-05
407.8157,-7.490416E-05
407.9157,-7.488439E-05
408.0157,-7.487214E-05
408.1157,-7.485895E-05
408.2157,-7.482129E-05
408.3157,-7.476856E-05
408.4157,-7.480528E-05
408.5157,-7.478738E-05
408.6157,-7.473653E-05
408.7157,-7.471676E-05
408.8157,-7.474313E-05
408.9157,-7.467815E-05
409.0157,-7.463576E-05
409.1158,-7.463012E-05
409.2158,-7.462541E-05
409.3158,-7.457833E-05
409.4158,-7.455477E-05
409.5158,-7.453689E-05
409.6158,-7.451428E-05
409.7158,-7.450769E-05
409.8158,-7.44898E-05
409.9158,-7.442765E-05
410.0158,-7.4422E-05
410.1158,-7.442765E-05
410.2158,-7.437868E-05
410.3158,-7.435136E-05
410.4158,-7.434195E-05
410.5158,-7.434384E-05
410.6158,-7.431558E-05
410.7159,-7.429674E-05
410.8159,-7.426567E-05
410.9159,-7.422328E-05
411.0159,-7.422423E-05
411.1159,-7.421481E-05
411.2159,-7.419504E-05
411.3159,-7.415549E-05
411.4159,-7.411499E-05
411.5159,-7.412912E-05
411.6159,-7.412535E-05
411.7159,-7.407543E-05
411.8159,-7.402647E-05
411.9159,-7.405472E-05
412.0159,-7.400952E-05
412.1159,-7.396055E-05
412.2159,-7.397844E-05
412.3159,-7.396055E-05
412.416,-7.390027E-05
412.516,-7.390875E-05
412.616,-7.389839E-05
412.716,-7.387861E-05
412.816,-7.382305E-05
412.916,-7.379668E-05
413.016,-7.381175E-05
413.116,-7.379668E-05
413.216,-7.376089E-05
413.316,-7.371004E-05
413.416,-7.373076E-05
413.516,-7.370533E-05
413.616,-7.365825E-05
413.716,-7.365542E-05
413.816,-7.363753E-05
413.916,-7.359045E-05
414.0161,-7.356596E-05
414.1161,-7.356219E-05
414.2161,-7.353959E-05
414.3161,-7.35151E-05
414.4161,-7.351417E-05
414.5161,-7.346519E-05
414.6161,-7.345295E-05
414.7161,-7.344448E-05
414.8161,-7.340116E-05
414.9161,-7.337008E-05
415.0161,-7.335878E-05
415.1161,-7.336631E-05
415.2161,-7.334183E-05
415.3161,-7.330793E-05
415.4161,-7.329191E-05
415.5161,-7.325142E-05
415.6161,-7.325519E-05
415.7162,-7.323259E-05
415.8162,-7.318456E-05
415.9162,-7.318833E-05
416.0162,-7.313653E-05
416.1162,-7.313747E-05
416.2162,-7.311864E-05
416.3162,-7.309604E-05
416.4162,-7.306496E-05
416.5162,-7.306779E-05
416.6162,-7.305272E-05
416.7162,-7.301881E-05
416.8162,-7.304329E-05
416.9162,-7.301033E-05
417.0162,-7.29689E-05
417.1162,-7.295572E-05
417.2162,-7.295854E-05
417.3163,-7.290015E-05
417.4163,-7.289451E-05
417.5163,-7.28719E-05
417.6163,-7.2838E-05
417.7163,-7.282765E-05
417.8163,-7.28333E-05
417.9163,-7.278809E-05
418.0163,-7.275042E-05
418.1163,-7.273159E-05
418.2163,-7.270616E-05
418.3163,-7.270898E-05
418.4163,-7.268544E-05
418.5163,-7.261952E-05
418.6163,-7.262706E-05
418.7163,-7.262046E-05
418.8163,-7.260351E-05
418.9164,-7.257902E-05
419.0164,-7.254606E-05
419.1164,-7.252629E-05
419.2164,-7.25084E-05
419.3164,-7.249145E-05
419.4164,-7.247449E-05
419.5164,-7.245565E-05
419.6164,-7.243965E-05
419.7164,-7.236807E-05
419.8164,-7.238503E-05
419.9164,-7.238692E-05
420.0164,-7.233417E-05
420.1164,-7.232665E-05
420.2164,-7.23031E-05
420.3164,-7.226825E-05
420.4164,-7.225884E-05
420.5164,-7.226261E-05
420.6165,-7.221646E-05
420.7165,-7.218633E-05
420.8165,-7.219668E-05
420.9165,-7.21656E-05
421.0165,-7.213453E-05
421.1165,-7.21496E-05
421.2165,-7.209121E-05
421.3165,-7.209498E-05
421.4165,-7.207332E-05
421.5165,-7.202906E-05
421.6165,-7.206578E-05
421.7165,-7.203847E-05
421.8165,-7.201116E-05
421.9165,-7.195278E-05
422.0165,-7.199044E-05
422.1165,-7.196408E-05
422.2166,-7.191605E-05
422.3166,-7.189815E-05
422.4166,-7.188968E-05
422.5166,-7.188685E-05
422.6166,-7.187273E-05
422.7166,-7.183977E-05
422.8166,-7.179457E-05
422.9166,-7.178986E-05
423.0166,-7.177667E-05
423.1166,-7.17503E-05
423.2166,-7.176161E-05
423.3166,-7.172959E-05
423.4166,-7.170322E-05
423.5166,-7.168815E-05
423.6166,-7.168061E-05
423.7166,-7.165236E-05
423.8167,-7.162599E-05
423.9167,-7.160998E-05
424.0167,-7.157702E-05
424.1167,-7.159963E-05
424.2167,-7.156196E-05
424.3167,-7.154124E-05
424.4167,-7.153088E-05
424.5167,-7.150451E-05
424.6167,-7.148756E-05
424.7167,-7.147909E-05
424.8167,-7.144612E-05
424.9167,-7.143576E-05
425.0167,-7.142258E-05
425.1167,-7.140939E-05
425.2167,-7.137267E-05
425.3167,-7.13802E-05
425.4167,-7.134348E-05
425.5168,-7.129073E-05
425.6168,-7.131804E-05
425.7168,-7.130203E-05
425.8168,-7.122011E-05
425.9168,-7.124647E-05
426.0168,-7.126061E-05
426.1168,-7.120881E-05
426.2168,-7.118056E-05
426.3168,-7.117396E-05
426.4168,-7.114476E-05
426.5168,-7.11476E-05
426.6168,-7.112499E-05
426.7168,-7.10779E-05
426.8168,-7.108262E-05
426.9168,-7.104306E-05
427.0168,-7.099126E-05
427.1169,-7.102517E-05
427.2169,-7.102706E-05
427.3169,-7.097903E-05
427.4169,-7.09489E-05
427.5169,-7.096207E-05
427.6169,-7.092817E-05
427.7169,-7.089615E-05
427.8169,-7.088674E-05
427.9169,-7.086602E-05
428.0169,-7.083965E-05
428.1169,-7.083023E-05
428.2169,-7.080669E-05
428.3169,-7.079538E-05
428.4169,-7.079444E-05
428.5169,-7.076619E-05
428.6169,-7.072099E-05
428.7169,-7.069745E-05
428.817,-7.071817E-05
428.917,-7.067579E-05
429.017,-7.066072E-05
429.117,-7.06287E-05
429.217,-7.059104E-05
429.317,-7.059385E-05
429.417,-7.058914E-05
429.517,-7.054488E-05
429.617,-7.054394E-05
429.717,-7.053264E-05
429.817,-7.047614E-05
429.917,-7.047049E-05
430.017,-7.046013E-05
430.117,-7.043941E-05
430.217,-7.040646E-05
430.317,-7.039327E-05
430.4171,-7.039515E-05
430.5171,-7.035936E-05
430.6171,-7.035466E-05
430.7171,-7.032359E-05
430.8171,-7.031416E-05
430.9171,-7.032075E-05
431.0171,-7.02699E-05
431.1171,-7.027461E-05
431.2171,-7.024636E-05
431.3171,-7.020962E-05
431.4171,-7.021717E-05
431.5171,-7.021811E-05
431.6171,-7.01729E-05
431.7171,-7.012299E-05
431.8171,-7.014936E-05
431.9171,-7.012582E-05
432.0172,-7.008626E-05
432.1172,-7.008344E-05
432.2172,-7.004105E-05
432.3172,-7.004765E-05
432.4172,-7.005707E-05
432.5172,-7.000715E-05
432.6172,-6.996666E-05
432.7172,-6.997043E-05
432.8172,-6.996289E-05
432.9172,-6.991581E-05
433.0172,-6.989321E-05
433.1172,-6.992522E-05
433.2172,-6.989509E-05
433.3172,-6.988473E-05
433.4172,-6.984141E-05
433.5172,-6.982164E-05
433.6172,-6.983294E-05
433.7173,-6.982164E-05
433.8173,-6.974724E-05
433.9173,-6.974818E-05
434.0173,-6.976702E-05
434.1173,-6.970581E-05
434.2173,-6.970674E-05
434.3173,-6.970391E-05
434.4173,-6.967002E-05
434.5173,-6.965589E-05
434.6173,-6.966813E-05
434.7173,-6.959656E-05
434.8173,-6.959374E-05
434.9173,-6.960975E-05
435.0173,-6.957396E-05
435.1173,-6.955513E-05
435.2173,-6.954665E-05
435.3174,-6.951558E-05
435.4174,-6.947979E-05
435.5174,-6.947884E-05
435.6174,-6.946002E-05
435.7174,-6.941293E-05
435.8174,-6.940916E-05
435.9174,-6.938185E-05
436.0174,-6.935736E-05
436.1174,-6.935831E-05
436.2174,-6.933946E-05
436.3174,-6.929897E-05
436.4174,-6.928579E-05
436.5174,-6.927166E-05
436.6174,-6.92453E-05
436.7174,-6.92566E-05
436.8174,-6.920292E-05
436.9174,-6.917561E-05
437.0175,-6.917749E-05
437.1175,-6.917373E-05
437.2175,-6.915018E-05
437.3175,-6.913135E-05
437.4175,-6.908709E-05
437.5175,-6.908709E-05
437.6175,-6.910027E-05
437.7175,-6.90692E-05
437.8175,-6.902493E-05
437.9175,-6.901269E-05
438.0175,-6.902681E-05
438.1175,-6.896937E-05
438.2175,-6.898255E-05
438.3175,-6.894018E-05
438.4175,-6.894771E-05
438.5175,-6.894394E-05
438.6176,-6.892323E-05
438.7176,-6.886767E-05
438.8176,-6.88639E-05
438.9176,-6.887237E-05
439.0176,-6.882905E-05
439.1176,-6.881305E-05
439.2176,-6.879703E-05
439.3176,-6.876501E-05
439.4176,-6.876219E-05
439.5176,-6.875842E-05
439.6176,-6.870663E-05
439.7176,-6.869721E-05
439.8176,-6.87085E-05
439.9176,-6.865578E-05
440.0176,-6.865483E-05
440.1176,-6.86473E-05
440.2177,-6.857949E-05
440.3177,-6.858514E-05
440.4177,-6.860021E-05
440.5177,-6.857007E-05
440.6177,-6.854465E-05
440.7177,-6.853711E-05
440.8177,-6.848249E-05
440.9177,-6.848908E-05
441.0177,-6.848155E-05
441.1177,-6.844954E-05
441.2177,-6.844483E-05
441.3177,-6.842034E-05
441.4177,-6.839868E-05
441.5177,-6.840056E-05
441.6177,-6.837797E-05
441.7177,-6.834406E-05
441.8177,-6.831392E-05
441.9178,-6.830921E-05
442.0178,-6.830921E-05
442.1178,-6.828567E-05
442.2178,-6.82546E-05
442.3178,-6.823482E-05
442.4178,-6.825271E-05
442.5178,-6.822823E-05
442.6178,-6.818868E-05
442.7178,-6.818868E-05
442.8178,-6.816607E-05
442.9178,-6.81689E-05
443.0178,-6.818584E-05
443.1178,-6.814159E-05
443.2178,-6.810863E-05
443.3178,-6.809921E-05
443.4178,-6.808979E-05
443.5179,-6.805496E-05
443.6179,-6.80427E-05
443.7179,-6.803517E-05
443.8179,-6.798055E-05
443.9179,-6.796925E-05
444.0179,-6.798808E-05
444.1179,-6.796737E-05
444.2179,-6.793158E-05
444.3179,-6.789863E-05
444.4179,-6.788073E-05
444.5179,-6.78779E-05
444.6179,-6.78845E-05
444.7179,-6.785059E-05
444.8179,-6.780821E-05
444.9179,-6.781292E-05
445.0179,-6.778278E-05
445.118,-6.776867E-05
445.218,-6.776018E-05
445.318,-6.772816E-05
445.418,-6.77423E-05
445.518,-6.773193E-05
445.618,-6.768956E-05
445.718,-6.765942E-05
445.818,-6.767166E-05
445.918,-6.76679E-05
446.018,-6.760198E-05
446.118,-6.76161E-05
446.218,-6.760668E-05
446.318,-6.757184E-05
446.418,-6.758314E-05
446.518,-6.753793E-05
446.618,-6.749556E-05
446.718,-6.750215E-05
446.8181,-6.749838E-05
446.9181,-6.747201E-05
447.0181,-6.74513E-05
447.1181,-6.743812E-05
447.2181,-6.740233E-05
447.3181,-6.738632E-05
447.4181,-6.738256E-05
447.5181,-6.735336E-05
447.6181,-6.736936E-05
447.7181,-6.734394E-05
447.8181,-6.728838E-05
447.9181,-6.728273E-05
448.0181,-6.727425E-05
448.1181,-6.726484E-05
448.2181,-6.724035E-05
448.3181,-6.722811E-05
448.4182,-6.719044E-05
448.5182,-6.718856E-05
448.6182,-6.71716E-05
448.7182,-6.712451E-05
448.8182,-6.713581E-05
448.9182,-6.713394E-05
449.0182,-6.708873E-05
449.1182,-6.705953E-05
449.2182,-6.704259E-05
449.3182,-6.703788E-05
449.4182,-6.70294E-05
449.5182,-6.701716E-05
449.6182,-6.69503E-05
449.7182,-6.696066E-05
449.8182,-6.697855E-05
449.9182,-6.692487E-05
450.0182,-6.693052E-05
450.1183,-6.689473E-05
450.2183,-6.687685E-05
450.3183,-6.690132E-05
450.4183,-6.690039E-05
450.5183,-6.687119E-05
450.6183,-6.6842E-05
450.7183,-6.685048E-05
450.8183,-6.683353E-05
450.9183,-6.681092E-05
451.0183,-6.680904E-05
451.1183,-6.677231E-05
451.2183,-6.676195E-05
451.3183,-6.673841E-05
451.4183,-6.671581E-05
451.5183,-6.668943E-05
451.6183,-6.670639E-05
451.7184,-6.667343E-05
451.8184,-6.663105E-05
451.9184,-6.662164E-05
452.0184,-6.66141E-05
452.1184,-6.65915E-05
452.2184,-6.658302E-05
452.3184,-6.6551E-05
452.4184,-6.655194E-05
452.5184,-6.657549E-05
452.6184,-6.651333E-05
452.7184,-6.646624E-05
452.8184,-6.64992E-05
452.9184,-6.648884E-05
453.0184,-6.643893E-05
453.1184,-6.644742E-05
453.2184,-6.641727E-05
453.3185,-6.638996E-05
453.4185,-6.64041E-05
453.5185,-6.635512E-05
453.6185,-6.633723E-05
453.7185,-6.636266E-05
453.8185,-6.635136E-05
453.9185,-6.630992E-05
454.0185,-6.631369E-05
454.1185,-6.627602E-05
454.2185,-6.626284E-05
454.3185,-6.626284E-05
454.4185,-6.623175E-05
454.5185,-6.619597E-05
454.6185,-6.618373E-05
454.7185,-6.618184E-05
454.8185,-6.615077E-05
454.9185,-6.615171E-05
455.0186,-6.613947E-05
455.1186,-6.608767E-05
455.2186,-6.607637E-05
455.3186,-6.608297E-05
455.4186,-6.605754E-05
455.5186,-6.605189E-05
455.6186,-6.603116E-05
455.7186,-6.596618E-05
455.8186,-6.598784E-05
455.9186,-6.598973E-05
456.0186,-6.596901E-05
456.1186,-6.593417E-05
456.2186,-6.589838E-05
456.3186,-6.589462E-05
456.4186,-6.589932E-05
456.5186,-6.588708E-05
456.6187,-6.584188E-05
456.7187,-6.583246E-05
456.8187,-6.583058E-05
456.9187,-6.580797E-05
457.0187,-6.581834E-05
457.1187,-6.57929E-05
457.2187,-6.573923E-05
457.3187,-6.574394E-05
457.4187,-6.573828E-05
457.5187,-6.569403E-05
457.6187,-6.568932E-05
457.7187,-6.569497E-05
457.8187,-6.567802E-05
457.9187,-6.561492E-05
458.0187,-6.563847E-05
458.1187,-6.563658E-05
458.2188,-6.559138E-05
458.3188,-6.559985E-05
458.4188,-6.557066E-05
458.5188,-6.555748E-05
458.6188,-6.554805E-05
458.7188,-6.550945E-05
458.8188,-6.550097E-05
458.9188,-6.551227E-05
459.0188,-6.54812E-05
459.1188,-6.5452E-05
459.2188,-6.543034E-05
459.3188,-6.543694E-05
459.4188,-6.540398E-05
459.5188,-6.542374E-05
459.6188,-6.537761E-05
459.7188,-6.533523E-05
459.8188,-6.534558E-05
459.9189,-6.534465E-05
460.0189,-6.53211E-05
460.1189,-6.529285E-05
460.2189,-6.528908E-05
460.3189,-6.524294E-05
460.4189,-6.525894E-05
460.5189,-6.523917E-05
460.6189,-6.520809E-05
460.7189,-6.517984E-05
460.8189,-6.516383E-05
460.9189,-6.513746E-05
461.0189,-6.515724E-05
461.1189,-6.513935E-05
461.2189,-6.511957E-05
461.3189,-6.509697E-05
461.4189,-6.507343E-05
461.519,-6.505177E-05
461.619,-6.506589E-05
461.719,-6.503199E-05
461.819,-6.499056E-05
461.919,-6.499621E-05
462.019,-6.496042E-05
462.119,-6.497266E-05
462.219,-6.4951E-05
462.319,-6.49623E-05
462.419,-6.490863E-05
462.519,-6.48879E-05
462.619,-6.488225E-05
462.719,-6.487661E-05
462.819,-6.485212E-05
462.919,-6.481633E-05
463.019,-6.48088E-05
463.119,-6.48314E-05
463.2191,-6.478055E-05
463.3191,-6.475324E-05
463.4191,-6.478055E-05
463.5191,-6.475512E-05
463.6191,-6.472216E-05
463.7191,-6.470238E-05
463.8191,-6.471181E-05
463.9191,-6.469391E-05
464.0191,-6.469015E-05
464.1191,-6.466189E-05
464.2191,-6.463364E-05
464.3191,-6.462517E-05
464.4191,-6.464776E-05
464.5191,-6.458654E-05
464.6191,-6.45357E-05
464.7191,-6.457337E-05
464.8192,-6.456867E-05
464.9192,-6.453663E-05
465.0192,-6.450085E-05
465.1192,-6.451498E-05
465.2192,-6.447825E-05
465.3192,-6.448202E-05
465.4192,-6.446601E-05
465.5192,-6.443964E-05
465.6192,-6.4434E-05
465.7192,-6.440856E-05
465.8192,-6.439915E-05
465.9192,-6.439068E-05
466.0192,-6.437278E-05
466.1192,-6.433699E-05
466.2192,-6.434642E-05
466.3192,-6.432569E-05
466.4193,-6.430026E-05
466.5193,-6.431533E-05
466.6193,-6.429838E-05
466.7193,-6.428708E-05
466.8193,-6.427201E-05
466.9193,-6.427955E-05
467.0193,-6.428614E-05
467.1193,-6.424094E-05
467.2193,-6.426166E-05
467.3193,-6.427296E-05
467.4193,-6.422681E-05
467.5193,-6.421833E-05
467.6193,-6.421551E-05
467.7193,-6.419761E-05
467.8193,-6.417502E-05
467.9193,-6.412416E-05
468.0193,-6.412981E-05
468.1194,-6.412228E-05
468.2194,-6.408743E-05
468.3194,-6.406107E-05
468.4194,-6.407802E-05
468.5194,-6.406201E-05
468.6194,-6.402245E-05
468.7194,-6.400833E-05
468.8194,-6.395371E-05
468.9194,-6.396501E-05
469.0194,-6.398667E-05
469.1194,-6.39311E-05
469.2194,-6.389344E-05
469.3194,-6.39151E-05
469.4194,-6.390191E-05
469.5194,-6.387837E-05
469.6194,-6.38699E-05
469.7195,-6.387743E-05
469.8195,-6.383128E-05
469.9195,-6.382845E-05
470.0195,-6.383222E-05
470.1195,-6.379738E-05
470.2195,-6.379549E-05
470.3195,-6.375877E-05
470.4195,-6.373428E-05
470.5195,-6.375971E-05
470.6195,-6.376819E-05
470.7195,-6.371827E-05
470.8195,-6.370038E-05
470.9195,-6.370791E-05
471.0195,-6.367402E-05
471.1195,-6.369002E-05
471.2195,-6.366459E-05
471.3195,-6.359868E-05
471.4196,-6.364671E-05
471.5196,-6.362034E-05
471.6196,-6.35949E-05
471.7196,-6.357137E-05
471.8196,-6.356477E-05
471.9196,-6.352617E-05
472.0196,-6.353558E-05
472.1196,-6.353747E-05
472.2196,-6.348096E-05
472.3196,-6.347532E-05
472.4196,-6.347061E-05
472.5196,-6.347719E-05
472.6196,-6.347342E-05
472.7196,-6.343293E-05
472.8196,-6.340562E-05
472.9196,-6.340185E-05
473.0197,-6.339903E-05
473.1197,-6.33689E-05
473.2197,-6.335571E-05
473.3197,-6.334818E-05
473.4197,-6.330203E-05
473.5197,-6.330298E-05
473.6197,-6.33218E-05
473.7197,-6.327943E-05
473.8197,-6.324458E-05
473.9197,-6.325494E-05
474.0197,-6.323704E-05
474.1197,-6.323893E-05
474.2197,-6.32314E-05
474.3197,-6.318055E-05
474.4197,-6.318055E-05
474.5197,-6.317678E-05
474.6198,-6.315795E-05
474.7198,-6.316925E-05
474.8198,-6.3157E-05
474.9198,-6.309579E-05
475.0198,-6.310616E-05
475.1198,-6.310897E-05
475.2198,-6.30666E-05
475.3198,-6.309202E-05
475.4198,-6.309956E-05
475.5198,-6.301104E-05
475.6198,-6.30148E-05
475.7198,-6.303646E-05
475.8198,-6.301292E-05
475.9198,-6.297525E-05
476.0198,-6.300255E-05
476.1198,-6.296489E-05
476.2198,-6.292722E-05
476.3199,-6.295359E-05
476.4199,-6.293381E-05
476.5199,-6.292722E-05
476.6199,-6.28952E-05
476.7199,-6.287448E-05
476.8199,-6.285283E-05
476.9199,-6.291122E-05
477.0199,-6.285283E-05
477.1199,-6.281515E-05
477.2199,-6.281892E-05
477.3199,-6.280292E-05
477.4199,-6.27869E-05
477.5199,-6.279726E-05
477.6199,-6.277184E-05
477.7199,-6.27483E-05
477.8199,-6.2753E-05
477.92,-6.271156E-05
478.02,-6.270685E-05
478.12,-6.270309E-05
478.22,-6.270685E-05
478.32,-6.269461E-05
478.42,-6.266731E-05
478.52,-6.265601E-05
478.62,-6.265695E-05
478.72,-6.263528E-05
478.82,-6.260892E-05
478.92,-6.262681E-05
479.02,-6.260232E-05
479.12,-6.258443E-05
479.22,-6.253829E-05
479.32,-6.257219E-05
479.42,-6.25543E-05
479.5201,-6.25138E-05
479.6201,-6.251663E-05
479.7201,-6.251569E-05
479.8201,-6.249026E-05
479.9201,-6.247896E-05
480.0201,-6.246389E-05
480.1201,-6.243093E-05
480.2201,-6.242905E-05
480.3201,-6.240739E-05
480.4201,-6.23829E-05
480.5201,-6.236595E-05
480.6201,-6.238196E-05
480.7201,-6.234241E-05
480.8201,-6.232075E-05
480.9201,-6.233299E-05
481.0201,-6.230285E-05
481.1201,-6.229061E-05
481.2202,-6.229532E-05
481.3202,-6.225294E-05
481.4202,-6.223128E-05
481.5202,-6.223034E-05
481.6202,-6.22294E-05
481.7202,-6.222186E-05
481.8202,-6.220114E-05
481.9202,-6.217855E-05
482.0202,-6.216631E-05
482.1202,-6.218325E-05
482.2202,-6.215218E-05
482.3202,-6.213052E-05
482.4202,-6.211357E-05
482.5202,-6.209379E-05
482.6202,-6.208061E-05
482.7202,-6.209849E-05
482.8203,-6.208814E-05
482.9203,-6.206271E-05
483.0203,-6.203917E-05
483.1203,-6.201186E-05
483.2203,-6.200809E-05
483.3203,-6.201186E-05
483.4203,-6.199397E-05
483.5203,-6.197042E-05
483.6203,-6.196759E-05
483.7203,-6.193087E-05
483.8203,-6.19271E-05
483.9203,-6.195912E-05
484.0203,-6.193181E-05
484.1203,-6.189226E-05
484.2203,-6.188661E-05
484.3203,-6.188661E-05
484.4203,-6.185742E-05
484.5204,-6.184988E-05
484.6204,-6.182822E-05
484.7204,-6.181221E-05
484.8204,-6.180751E-05
484.9204,-6.178395E-05
485.0204,-6.177454E-05
485.1204,-6.180091E-05
485.2204,-6.179149E-05
485.3204,-6.173593E-05
485.4204,-6.173028E-05
485.5204,-6.172557E-05
485.6204,-6.170203E-05
485.7204,-6.171239E-05
485.8204,-6.169543E-05
485.9204,-6.164835E-05
486.0204,-6.168602E-05
486.1205,-6.167566E-05
486.2205,-6.16088E-05
486.3205,-6.162951E-05
486.4205,-6.164929E-05
486.5205,-6.160315E-05
486.6205,-6.157019E-05
486.7205,-6.159279E-05
486.8205,-6.157866E-05
486.9205,-6.1557E-05
487.0205,-6.158619E-05
487.1205,-6.151933E-05
487.2205,-6.151274E-05
487.3205,-6.151274E-05
487.4205,-6.147507E-05
487.5205,-6.149297E-05
487.6205,-6.152028E-05
487.7206,-6.146471E-05
487.8206,-6.142234E-05
487.9206,-6.145812E-05
488.0206,-6.142139E-05
488.1206,-6.142045E-05
488.2206,-6.141762E-05
488.3206,-6.138561E-05
488.4206,-6.137713E-05
488.5206,-6.134983E-05
488.6206,-6.134794E-05
488.7206,-6.133004E-05
488.8206,-6.131968E-05
488.9206,-6.131874E-05
489.0206,-6.128014E-05
489.1206,-6.129426E-05
489.2206,-6.126412E-05
489.3206,-6.123681E-05
489.4207,-6.125189E-05
489.5207,-6.124152E-05
489.6207,-6.121139E-05
489.7207,-6.12048E-05
489.8207,-6.119255E-05
489.9207,-6.11709E-05
490.0207,-6.118125E-05
490.1207,-6.116241E-05
490.2207,-6.111815E-05
490.3207,-6.113228E-05
490.4207,-6.112192E-05
490.5207,-6.110968E-05
490.6207,-6.107766E-05
490.7207,-6.108802E-05
490.8207,-6.104658E-05
490.9207,-6.107295E-05
491.0208,-6.104753E-05
491.1208,-6.099856E-05
491.2208,-6.10108E-05
491.3208,-6.101833E-05
491.4208,-6.099573E-05
491.5208,-6.0959E-05
491.6208,-6.094582E-05
491.7208,-6.093828E-05
491.8208,-6.094017E-05
491.9208,-6.092228E-05
492.0208,-6.090909E-05
492.1208,-6.090156E-05
492.2208,-6.088272E-05
492.3208,-6.08799E-05
492.4208,-6.088555E-05
492.5208,-6.083846E-05
492.6208,-6.08168E-05
492.7209,-6.083281E-05
492.8209,-6.083187E-05
492.9209,-6.078007E-05
493.0209,-6.078573E-05
493.1209,-6.076971E-05
493.2209,-6.074617E-05
493.3209,-6.074617E-05
493.4209,-6.075465E-05
493.5209,-6.072169E-05
493.6209,-6.069155E-05
493.7209,-6.071227E-05
493.8209,-6.067648E-05
493.9209,-6.067366E-05
494.0209,-6.068025E-05
494.1209,-6.065859E-05
494.2209,-6.063034E-05
494.321,-6.065105E-05
494.421,-6.063222E-05
494.521,-6.060303E-05
494.621,-6.060868E-05
494.721,-6.060868E-05
494.821,-6.057478E-05
494.921,-6.056442E-05
495.021,-6.055877E-05
495.121,-6.057384E-05
495.221,-6.056159E-05
495.321,-6.05211E-05
495.421,-6.049567E-05
495.521,-6.050603E-05
495.621,-6.048531E-05
495.721,-6.0458E-05
495.821,-6.046836E-05
495.9211,-6.046742E-05
496.0211,-6.043258E-05
496.1211,-6.04241E-05
496.2211,-6.042128E-05
496.3211,-6.041939E-05
496.4211,-6.040526E-05
496.5211,-6.037042E-05
496.6211,-6.035441E-05
496.7211,-6.037513E-05
496.8211,-6.037607E-05
496.9211,-6.032616E-05
497.0211,-6.031957E-05
497.1211,-6.032145E-05
497.2211,-6.030356E-05
497.3211,-6.029979E-05
497.4211,-6.030827E-05
497.5211,-6.026401E-05
497.6212,-6.023952E-05
497.7212,-6.027342E-05
497.8212,-6.023387E-05
497.9212,-6.019903E-05
498.0212,-6.020467E-05
498.1212,-6.018678E-05
498.2212,-6.018019E-05
498.3212,-6.018678E-05
498.4212,-6.01623E-05
498.5212,-6.014535E-05
498.6212,-6.011144E-05
498.7212,-6.011897E-05
498.8212,-6.009826E-05
498.9212,-6.011615E-05
499.0212,-6.007566E-05
499.1212,-6.005306E-05
499.2213,-6.008131E-05
499.3213,-6.00314E-05
499.4213,-6.00314E-05
499.5213,-6.004929E-05
499.6213,-6.000974E-05
499.7213,-5.998337E-05
499.8213,-5.997207E-05
499.9213,-5.997772E-05
500.0213,-5.995606E-05
500.1213,-5.992216E-05
500.2213,-5.994758E-05
500.3213,-5.991462E-05
500.4213,-5.990615E-05
500.5213,-5.989578E-05
500.6213,-5.989296E-05
500.7213,-5.98713E-05
500.8214,-5.985529E-05
500.9214,-5.984493E-05
501.0214,-5.986188E-05
501.1214,-5.983928E-05
501.2214,-5.980162E-05
501.3214,-5.980915E-05
501.4214,-5.983175E-05
501.5214,-5.979031E-05
501.6214,-5.974793E-05
501.7214,-5.975265E-05
501.8214,-5.973852E-05
501.9214,-5.97357E-05
502.0214,-5.972816E-05
502.1214,-5.968767E-05
502.2214,-5.968013E-05
502.3214,-5.971498E-05
502.4214,-5.970932E-05
502.5215,-5.964906E-05
502.6215,-5.965E-05
502.7215,-5.96547E-05
502.8215,-5.962645E-05
502.9215,-5.962551E-05
503.0215,-5.961609E-05
503.1215,-5.958313E-05
503.2215,-5.958408E-05
503.3215,-5.958031E-05
503.4215,-5.957089E-05
503.5215,-5.95577E-05
503.6215,-5.953981E-05
503.7215,-5.951627E-05
503.8215,-5.948613E-05
503.9215,-5.950591E-05
504.0215,-5.94899E-05
504.1216,-5.947201E-05
504.2216,-5.946353E-05
504.3216,-5.943905E-05
504.4216,-5.945129E-05
504.5216,-5.944376E-05
504.6216,-5.943151E-05
504.7216,-5.941739E-05
504.8216,-5.93816E-05
504.9216,-5.93816E-05
505.0216,-5.938443E-05
505.1216,-5.936559E-05
505.2216,-5.933075E-05
505.3216,-5.933451E-05
505.4216,-5.932039E-05
505.5216,-5.931191E-05
505.6216,-5.929214E-05
505.7216,-5.929967E-05
505.8217,-5.925541E-05
505.9217,-5.923375E-05
506.0217,-5.924788E-05
506.1217,-5.924976E-05
506.2217,-5.924129E-05
506.3217,-5.921115E-05
506.4217,-5.919702E-05
506.5217,-5.918761E-05
506.6217,-5.920738E-05
506.7217,-5.91763E-05
506.8217,-5.913958E-05
506.9217,-5.916312E-05
507.0217,-5.915464E-05
507.1217,-5.913016E-05
507.2217,-5.913204E-05
507.3217,-5.910097E-05
507.4218,-5.907554E-05
507.5218,-5.906989E-05
507.6218,-5.909531E-05
507.7218,-5.906235E-05
507.8218,-5.904823E-05
507.9218,-5.900397E-05
508.0218,-5.903128E-05
508.1218,-5.905859E-05
508.2218,-5.902186E-05
508.3218,-5.896536E-05
508.4218,-5.897854E-05
508.5218,-5.897854E-05
508.6218,-5.897007E-05
508.7218,-5.89437E-05
508.8218,-5.896536E-05
508.9218,-5.891827E-05
509.0219,-5.891073E-05
509.1219,-5.893522E-05
509.2219,-5.89032E-05
509.3219,-5.888908E-05
509.4219,-5.886082E-05
509.5219,-5.885329E-05
509.6219,-5.885423E-05
509.7219,-5.884482E-05
509.8219,-5.884105E-05
509.9219,-5.879961E-05
510.0219,-5.881751E-05
510.1219,-5.879678E-05
510.2219,-5.88015E-05
510.3219,-5.879396E-05
510.4219,-5.875252E-05
510.5219,-5.874782E-05
510.6219,-5.877324E-05
510.722,-5.875347E-05
510.822,-5.874311E-05
510.922,-5.871297E-05
511.022,-5.869602E-05
511.122,-5.870544E-05
511.222,-5.871203E-05
511.322,-5.865835E-05
511.422,-5.864234E-05
511.522,-5.866589E-05
511.622,-5.868284E-05
511.722,-5.864234E-05
511.822,-5.862445E-05
511.922,-5.865364E-05
512.022,-5.862633E-05
512.122,-5.861032E-05
512.222,-5.862445E-05
512.322,-5.857831E-05
512.4219,-5.857266E-05
512.5219,-5.856512E-05
512.6219,-5.856606E-05
512.7219,-5.856512E-05
512.8218,-5.855476E-05
512.9218,-5.852745E-05
513.0218,-5.851239E-05
513.1218,-5.853875E-05
513.2217,-5.850579E-05
513.3217,-5.848884E-05
513.4217,-5.849261E-05
513.5217,-5.846436E-05
513.6216,-5.846341E-05
513.7216,-5.846718E-05
513.8216,-5.842104E-05
513.9216,-5.840785E-05
514.0215,-5.842669E-05
514.1215,-5.839938E-05
514.2215,-5.840879E-05
514.3215,-5.838337E-05
514.4214,-5.836359E-05
514.5214,-5.833157E-05
514.6214,-5.835229E-05
514.7214,-5.833251E-05
514.8214,-5.832309E-05
514.9213,-5.832309E-05
515.0213,-5.828072E-05
515.1213,-5.829484E-05
515.2213,-5.829108E-05
515.3212,-5.827695E-05
515.4212,-5.825624E-05
515.5212,-5.827789E-05
515.6212,-5.824776E-05
515.7211,-5.82148E-05
515.8211,-5.823928E-05
515.9211,-5.821574E-05
516.0211,-5.819408E-05
516.121,-5.820444E-05
516.221,-5.818467E-05
516.321,-5.815547E-05
516.421,-5.816489E-05
516.5209,-5.816865E-05
516.6209,-5.813004E-05
516.7209,-5.812251E-05
516.8209,-5.812721E-05
516.9208,-5.811498E-05
517.0208,-5.811591E-05
517.1208,-5.811215E-05
517.2208,-5.807636E-05
517.3207,-5.807825E-05
517.4207,-5.808295E-05
517.5207,-5.802363E-05
517.6207,-5.80321E-05
517.7206,-5.803963E-05
517.8206,-5.801609E-05
517.9206,-5.800479E-05
518.0206,-5.800573E-05
518.1205,-5.79869E-05
518.2205,-5.798313E-05
518.3205,-5.798596E-05
518.4205,-5.795488E-05
518.5204,-5.794923E-05
518.6204,-5.794264E-05
518.7204,-5.792945E-05
518.8204,-5.790685E-05
518.9203,-5.792757E-05
519.0203,-5.790591E-05
519.1203,-5.787766E-05
519.2203,-5.788425E-05
519.3203,-5.78786E-05
519.4202,-5.788331E-05
519.5202,-5.787954E-05
519.6202,-5.784563E-05
519.7202,-5.781362E-05
519.8201,-5.785976E-05
519.9201,-5.783528E-05
520.0201,-5.781362E-05
520.1201,-5.783998E-05
520.22,-5.779196E-05
520.32,-5.776936E-05
520.42,-5.780609E-05
520.52,-5.77929E-05
520.6199,-5.776182E-05
520.7199,-5.776371E-05
520.8199,-5.775429E-05
520.9199,-5.772039E-05
521.0198,-5.772227E-05
521.1198,-5.771097E-05
521.2198,-5.771568E-05
521.3198,-5.770438E-05
521.4197,-5.764693E-05
521.5197,-5.763846E-05
521.6197,-5.770061E-05
521.7197,-5.767707E-05
521.8196,-5.762904E-05
521.9196,-5.762716E-05
522.0196,-5.763186E-05
522.1196,-5.759325E-05
522.2195,-5.761774E-05
522.3195,-5.756218E-05
522.4195,-5.756218E-05
522.5195,-5.760644E-05
522.6194,-5.760455E-05
522.7194,-5.75424E-05
522.8194,-5.754429E-05
522.9194,-5.756689E-05
523.0193,-5.754711E-05
523.1193,-5.752262E-05
523.2193,-5.752168E-05
523.3193,-5.748684E-05
523.4193,-5.751321E-05
523.5192,-5.750379E-05
523.6192,-5.746989E-05
523.7192,-5.746141E-05
523.8192,-5.744258E-05
523.9191,-5.744634E-05
524.0191,-5.743787E-05
524.1191,-5.743033E-05
524.2191,-5.740585E-05
524.319,-5.739172E-05
524.419,-5.739172E-05
524.519,-5.736536E-05
524.619,-5.739079E-05
524.7189,-5.738607E-05
524.8189,-5.733804E-05
524.9189,-5.731639E-05
525.0189,-5.732957E-05
525.1188,-5.732769E-05
525.2188,-5.732298E-05
525.3188,-5.72919E-05
525.4188,-5.730509E-05
525.5187,-5.725423E-05
525.6187,-5.726835E-05
525.7187,-5.72693E-05
525.8187,-5.72467E-05
525.9186,-5.722127E-05
526.0186,-5.722409E-05
526.1186,-5.722881E-05
526.2186,-5.721185E-05
526.3185,-5.718266E-05
526.4185,-5.717983E-05
526.5185,-5.719302E-05
526.6185,-5.717325E-05
526.7184,-5.714405E-05
526.8184,-5.715158E-05
526.9184,-5.713275E-05
527.0184,-5.709884E-05
527.1183,-5.711579E-05
527.2183,-5.712145E-05
527.3183,-5.709979E-05
527.4183,-5.708001E-05
527.5182,-5.707059E-05
527.6182,-5.705458E-05
527.7182,-5.706023E-05
527.8182,-5.70527E-05
527.9182,-5.700279E-05
528.0181,-5.703481E-05
528.1181,-5.703292E-05
528.2181,-5.70075E-05
528.3181,-5.697359E-05
528.418,-5.698772E-05
528.518,-5.698113E-05
528.618,-5.696418E-05
528.718,-5.695382E-05
528.8179,-5.694628E-05
528.9179,-5.693593E-05
529.0179,-5.693121E-05
529.1179,-5.691897E-05
529.2178,-5.690485E-05
529.3178,-5.690862E-05
529.4178,-5.688225E-05
529.5178,-5.687377E-05
529.6177,-5.688037E-05
529.7177,-5.684081E-05
529.8177,-5.684081E-05
529.9177,-5.684458E-05
530.0176,-5.681821E-05
530.1176,-5.679184E-05
530.2176,-5.681068E-05
530.3176,-5.681162E-05
530.4175,-5.678996E-05
530.5175,-5.680503E-05
530.6175,-5.67796E-05
530.7175,-5.674193E-05
530.8174,-5.676736E-05
530.9174,-5.673534E-05
531.0174,-5.670426E-05
531.1174,-5.672121E-05
531.2173,-5.672687E-05
531.3173,-5.66713E-05
531.4173,-5.667413E-05
531.5173,-5.66939E-05
531.6172,-5.666E-05
531.7172,-5.662139E-05
531.8172,-5.665058E-05
531.9172,-5.666094E-05
532.0172,-5.660067E-05
532.1171,-5.660349E-05
532.2171,-5.662421E-05
532.3171,-5.660161E-05
532.4171,-5.655923E-05
532.517,-5.655547E-05
532.617,-5.657336E-05
532.717,-5.656112E-05
532.817,-5.653663E-05
532.9169,-5.651403E-05
533.0169,-5.654511E-05
533.1169,-5.65404E-05
533.2169,-5.652439E-05
533.3168,-5.652062E-05
533.4168,-5.648295E-05
533.5168,-5.646977E-05
533.6168,-5.650932E-05
533.7167,-5.648295E-05
533.8167,-5.644529E-05
533.9167,-5.644246E-05
534.0167,-5.641703E-05
534.1166,-5.64208E-05
534.2166,-5.643587E-05
534.3166,-5.641703E-05
534.4166,-5.635865E-05
534.5165,-5.638407E-05
534.6165,-5.6369E-05
534.7165,-5.635205E-05
534.8165,-5.635299E-05
534.9164,-5.633981E-05
535.0164,-5.629461E-05
535.1164,-5.63125E-05
535.2164,-5.632192E-05
535.3163,-5.629461E-05
535.4163,-5.627389E-05
535.5163,-5.625788E-05
535.6163,-5.62268E-05
535.7162,-5.626353E-05
535.8162,-5.626353E-05
535.9162,-5.621173E-05
536.0162,-5.619761E-05
536.1161,-5.619949E-05
536.2161,-5.618442E-05
536.3161,-5.621738E-05
536.4161,-5.617784E-05
536.5161,-5.615523E-05
536.616,-5.615052E-05
536.716,-5.616277E-05
536.816,-5.61364E-05
536.916,-5.61138E-05
537.0159,-5.61072E-05
537.1159,-5.608837E-05
537.2159,-5.609684E-05
537.3159,-5.608554E-05
537.4158,-5.609402E-05
537.5158,-5.607236E-05
537.6158,-5.605258E-05
537.7158,-5.60281E-05
537.8157,-5.602716E-05
537.9157,-5.600644E-05
538.0157,-5.600173E-05
538.1157,-5.600738E-05
538.2156,-5.599796E-05
538.3156,-5.595558E-05
538.4156,-5.595747E-05
538.5156,-5.59763E-05
538.6155,-5.594899E-05
538.7155,-5.59471E-05
538.8155,-5.592639E-05
538.9155,-5.591415E-05
539.0154,-5.594334E-05
539.1154,-5.590849E-05
539.2154,-5.587177E-05
539.3154,-5.588119E-05
539.4153,-5.590096E-05
539.5153,-5.58567E-05
539.6153,-5.586047E-05
539.7153,-5.584917E-05
539.8152,-5.581527E-05
539.9152,-5.582657E-05
540.0152,-5.583598E-05
540.1152,-5.580773E-05
540.2151,-5.578702E-05
540.3151,-5.581715E-05
540.4151,-5.578795E-05
540.5151,-5.575876E-05
540.6151,-5.577571E-05
540.715,-5.57597E-05
540.815,-5.573804E-05
540.915,-5.573898E-05
541.015,-5.571921E-05
541.1149,-5.571638E-05
541.2149,-5.572109E-05
541.3149,-5.571356E-05
541.4149,-5.57145E-05
541.5148,-5.570791E-05
541.6148,-5.567212E-05
541.7148,-5.56514E-05
541.8148,-5.56514E-05
541.9147,-5.564952E-05
542.0147,-5.563916E-05
542.1147,-5.561468E-05
542.2147,-5.560338E-05
542.3146,-5.559584E-05
542.4146,-5.560903E-05
542.5146,-5.559208E-05
542.6146,-5.557324E-05
542.7145,-5.556006E-05
542.8145,-5.55384E-05
542.9145,-5.55318E-05
543.0145,-5.555818E-05
543.1144,-5.553087E-05
543.2144,-5.551203E-05
543.3144,-5.550638E-05
543.4144,-5.550261E-05
543.5143,-5.547059E-05
543.6143,-5.546494E-05
543.7143,-5.54753E-05
543.8143,-5.546023E-05
543.9142,-5.544328E-05
544.0142,-5.541409E-05
544.1142,-5.541691E-05
544.2142,-5.543481E-05
544.3141,-5.54235E-05
544.4141,-5.539808E-05
544.5141,-5.538301E-05
544.6141,-5.538395E-05
544.7141,-5.535852E-05
544.814,-5.53623E-05
544.914,-5.535005E-05
545.014,-5.533499E-05
545.114,-5.533875E-05
545.2139,-5.530485E-05
545.3139,-5.530673E-05
545.4139,-5.532086E-05
545.5139,-5.529826E-05
545.6138,-5.526623E-05
545.7138,-5.528507E-05
545.8138,-5.527283E-05
545.9138,-5.523799E-05
546.0137,-5.523422E-05
546.1137,-5.524834E-05
546.2137,-5.523892E-05
546.3137,-5.521632E-05
546.4136,-5.521726E-05
546.5136,-5.519749E-05
546.6136,-5.519843E-05
546.7136,-5.517677E-05
546.8135,-5.514193E-05
546.9135,-5.517865E-05
547.0135,-5.51617E-05
547.1135,-5.509578E-05
547.2134,-5.515794E-05
547.3134,-5.515888E-05
547.4134,-5.511933E-05
547.5134,-5.509013E-05
547.6133,-5.510991E-05
547.7133,-5.508825E-05
547.8133,-5.507883E-05
547.9133,-5.508072E-05
548.0132,-5.502986E-05
548.1132,-5.502421E-05
548.2132,-5.505058E-05
548.3132,-5.503833E-05
548.4131,-5.500726E-05
548.5131,-5.497995E-05
548.6131,-5.49856E-05
548.7131,-5.494605E-05
548.813,-5.496676E-05
548.913,-5.495264E-05
549.013,-5.49404E-05
549.113,-5.492816E-05
549.213,-5.487542E-05
549.3129,-5.488954E-05
549.4129,-5.490744E-05
549.5129,-5.487071E-05
549.6129,-5.484811E-05
549.7128,-5.486223E-05
549.8128,-5.483492E-05
549.9128,-5.482927E-05
550.0128,-5.48547E-05
550.1127,-5.480856E-05
550.2127,-5.478124E-05
550.3127,-5.477842E-05
550.4127,-5.479349E-05
550.5126,-5.476806E-05
550.6126,-5.476618E-05
550.7126,-5.474263E-05
550.8126,-5.471344E-05
550.9125,-5.473133E-05
551.0125,-5.471344E-05
551.1125,-5.471438E-05
551.2125,-5.471344E-05
551.3124,-5.464752E-05
551.4124,-5.465223E-05
551.5124,-5.466918E-05
551.6124,-5.466353E-05
551.7123,-5.464093E-05
551.8123,-5.463999E-05
551.9123,-5.464658E-05
552.0123,-5.458819E-05
552.1122,-5.462586E-05
552.2122,-5.46268E-05
552.3122,-5.458442E-05
552.4122,-5.455523E-05
552.5121,-5.454204E-05
552.6121,-5.451756E-05
552.7121,-5.454487E-05
552.8121,-5.45477E-05
552.912,-5.450061E-05
553.012,-5.449119E-05
553.112,-5.447612E-05
553.212,-5.447801E-05
553.312,-5.44893E-05
553.4119,-5.444128E-05
553.5119,-5.441397E-05
553.6119,-5.444882E-05
553.7119,-5.444316E-05
553.8118,-5.439984E-05
553.9118,-5.441585E-05
554.0118,-5.439702E-05
554.1118,-5.436406E-05
554.2117,-5.440361E-05
554.3117,-5.437347E-05
554.4117,-5.434993E-05
554.5117,-5.434616E-05
554.6116,-5.433675E-05
554.7116,-5.43198E-05
554.8116,-5.431791E-05
554.9116,-5.431603E-05
555.0115,-5.428024E-05
555.1115,-5.426235E-05
555.2115,-5.428401E-05
555.3115,-5.425199E-05
555.4114,-5.423221E-05
555.5114,-5.422939E-05
555.6114,-5.42115E-05
555.7114,-5.422091E-05
555.8113,-5.423221E-05
555.9113,-5.418607E-05
556.0113,-5.415405E-05
556.1113,-5.4155E-05
556.2112,-5.414087E-05
556.3112,-5.416159E-05
556.4112,-5.413334E-05
556.5112,-5.410131E-05
556.6111,-5.412486E-05
556.7111,-5.409472E-05
556.8111,-5.407495E-05
556.9111,-5.407212E-05
557.011,-5.408531E-05
557.111,-5.405046E-05
557.211,-5.406459E-05
557.311,-5.403257E-05
557.4109,-5.402315E-05
557.5109,-5.401185E-05
557.6109,-5.401091E-05
557.7109,-5.398642E-05
557.8109,-5.395817E-05
557.9108,-5.397607E-05
558.0108,-5.396382E-05
558.1108,-5.395817E-05
558.2108,-5.396476E-05
558.3107,-5.394216E-05
558.4107,-5.392521E-05
558.5107,-5.392803E-05
558.6107,-5.390261E-05
558.7106,-5.388095E-05
558.8106,-5.389602E-05
558.9106,-5.388849E-05
559.0106,-5.385269E-05
559.1105,-5.3864E-05
559.2105,-5.385269E-05
559.3105,-5.383481E-05
559.4105,-5.381597E-05
559.5104,-5.378583E-05
559.6104,-5.377171E-05
559.7104,-5.381974E-05
559.8104,-5.378301E-05
559.9103,-5.375005E-05
560.0103,-5.374911E-05
560.1103,-5.37331E-05
560.2103,-5.371614E-05
560.3102,-5.373027E-05
560.4102,-5.37218E-05
560.5102,-5.369919E-05
560.6102,-5.368601E-05
560.7101,-5.366153E-05
560.8101,-5.366812E-05
560.9101,-5.367565E-05
561.0101,-5.3654E-05
561.11,-5.361444E-05
561.21,-5.360596E-05
561.31,-5.361162E-05
561.41,-5.359749E-05
561.5099,-5.359278E-05
561.6099,-5.355511E-05
561.7099,-5.354099E-05
561.8099,-5.354099E-05
561.9099,-5.355699E-05
562.0098,-5.352309E-05
562.1098,-5.350614E-05
562.2098,-5.34873E-05
562.3098,-5.348071E-05
562.4097,-5.347789E-05
562.5097,-5.346942E-05
562.6097,-5.345999E-05
562.7097,-5.345529E-05
562.8096,-5.341385E-05
562.9096,-5.341385E-05
563.0096,-5.343457E-05
563.1096,-5.342798E-05
563.2095,-5.339407E-05
563.3095,-5.341761E-05
563.4095,-5.339125E-05
563.5095,-5.335547E-05
563.6094,-5.33677E-05
563.7094,-5.338278E-05
563.8094,-5.332627E-05
563.9094,-5.331121E-05
564.0093,-5.331685E-05
564.1093,-5.329519E-05
564.2093,-5.32886E-05
564.3093,-5.32999E-05
564.4092,-5.32773E-05
564.5092,-5.32886E-05
564.6092,-5.327071E-05
564.7092,-5.326129E-05
564.8091,-5.323398E-05
564.9091,-5.324057E-05
565.0091,-5.323115E-05
565.1091,-5.321043E-05
565.209,-5.321327E-05
565.309,-5.318218E-05
565.409,-5.318878E-05
565.509,-5.321043E-05
565.6089,-5.317559E-05
565.7089,-5.316241E-05
565.8089,-5.316618E-05
565.9089,-5.315958E-05
566.0089,-5.315111E-05
566.1088,-5.31285E-05
566.2088,-5.310685E-05
566.3088,-5.309931E-05
566.4088,-5.313039E-05
566.5087,-5.308048E-05
566.6087,-5.306918E-05
566.7087,-5.306918E-05
566.8087,-5.305034E-05
566.9086,-5.304752E-05
567.0086,-5.306353E-05
567.1086,-5.301079E-05
567.2086,-5.298254E-05
567.3085,-5.301079E-05
567.4085,-5.299761E-05
567.5085,-5.297877E-05
567.6085,-5.298913E-05
567.7084,-5.297124E-05
567.8084,-5.292792E-05
567.9084,-5.29411E-05
568.0084,-5.29072E-05
568.1083,-5.289119E-05
568.2083,-5.292604E-05
568.3083,-5.294204E-05
568.4083,-5.289025E-05
568.5082,-5.288271E-05
568.6082,-5.289496E-05
568.7082,-5.286859E-05
568.8082,-5.28554E-05
568.9081,-5.288742E-05
569.0081,-5.281679E-05
569.1081,-5.282998E-05
569.2081,-5.283939E-05
569.308,-5.281773E-05
569.408,-5.282998E-05
569.508,-5.279702E-05
569.608,-5.27989E-05
569.7079,-5.278572E-05
569.8079,-5.277347E-05
569.9079,-5.276029E-05
570.0079,-5.276594E-05
570.1078,-5.276123E-05
570.2078,-5.27537E-05
570.3078,-5.272545E-05
570.4078,-5.275087E-05
570.5078,-5.271226E-05
570.6077,-5.27132E-05
570.7077,-5.271038E-05
570.8077,-5.269249E-05
570.9077,-5.26793E-05
571.0076,-5.266046E-05
571.1076,-5.262091E-05
571.2076,-5.262374E-05
571.3076,-5.264163E-05
571.4075,-5.260867E-05
571.5075,-5.259831E-05
571.6075,-5.257288E-05
571.7075,-5.257383E-05
571.8074,-5.254275E-05
571.9074,-5.255688E-05
572.0074,-5.255499E-05
572.1074,-5.251167E-05
572.2073,-5.251638E-05
572.3073,-5.248153E-05
572.4073,-5.246835E-05
572.5073,-5.248059E-05
572.6072,-5.246082E-05
572.7072,-5.244763E-05
572.8072,-5.24514E-05
572.9072,-5.243068E-05
573.0071,-5.240714E-05
573.1071,-5.240714E-05
573.2071,-5.24062E-05
573.3071,-5.238266E-05
573.407,-5.235346E-05
573.507,-5.23431E-05
573.607,-5.233651E-05
573.707,-5.235723E-05
573.8069,-5.235817E-05
573.9069,-5.229319E-05
574.0069,-5.229413E-05
574.1069,-5.231297E-05
574.2068,-5.231767E-05
574.3068,-5.231391E-05
574.4068,-5.226965E-05
574.5068,-5.223386E-05
574.6068,-5.22574E-05
574.7067,-5.225364E-05
574.8067,-5.221503E-05
574.9067,-5.223292E-05
575.0067,-5.220561E-05
575.1066,-5.218772E-05
575.2066,-5.219055E-05
575.3066,-5.219996E-05
575.4066,-5.216135E-05
575.5065,-5.213216E-05
575.6065,-5.213969E-05
575.7065,-5.21331E-05
575.8065,-5.21265E-05
575.9064,-5.211426E-05
576.0064,-5.209637E-05
576.1064,-5.209543E-05
576.2064,-5.209543E-05
576.3063,-5.207565E-05
576.4063,-5.206906E-05
576.5063,-5.20361E-05
576.6063,-5.202668E-05
576.7062,-5.203704E-05
576.8062,-5.203516E-05
576.9062,-5.201632E-05
577.0062,-5.199937E-05
577.1061,-5.199749E-05
577.2061,-5.196735E-05
577.3061,-5.197771E-05
577.4061,-5.199466E-05
577.506,-5.193156E-05
577.606,-5.193345E-05
577.706,-5.192686E-05
577.806,-5.192874E-05
577.9059,-5.191273E-05
578.0059,-5.191555E-05
578.1059,-5.18826E-05
578.2059,-5.186847E-05
578.3058,-5.188165E-05
578.4058,-5.187694E-05
578.5058,-5.185529E-05
578.6058,-5.185057E-05
578.7057,-5.180631E-05
578.8057,-5.181761E-05
578.9057,-5.182892E-05
579.0057,-5.181197E-05
579.1057,-5.179219E-05
579.2056,-5.178654E-05
579.3056,-5.175075E-05
579.4056,-5.176112E-05
579.5056,-5.177147E-05
579.6055,-5.172815E-05
579.7055,-5.17225E-05
579.8055,-5.172344E-05
579.9055,-5.170555E-05
580.0054,-5.170555E-05
580.1054,-5.169048E-05
580.2054,-5.168766E-05
580.3054,-5.168106E-05
580.4053,-5.167259E-05
580.5053,-5.166035E-05
580.6053,-5.162362E-05
580.7053,-5.166788E-05
580.8052,-5.164528E-05
580.9052,-5.160761E-05
581.0052,-5.163774E-05
581.1052,-5.16434E-05
581.2051,-5.161232E-05
581.3051,-5.159348E-05
581.4051,-5.159537E-05
581.5051,-5.157559E-05
581.605,-5.158407E-05
581.705,-5.156052E-05
581.805,-5.156052E-05
581.905,-5.156147E-05
582.0049,-5.155676E-05
582.1049,-5.15172E-05
582.2049,-5.15059E-05
582.3049,-5.152097E-05
582.4048,-5.151343E-05
582.5048,-5.148707E-05
582.6048,-5.147106E-05
582.7048,-5.145599E-05
582.8047,-5.147294E-05
582.9047,-5.14494E-05
583.0047,-5.141079E-05
583.1047,-5.143904E-05
583.2047,-5.144563E-05
583.3046,-5.140325E-05
583.4046,-5.138724E-05
583.5046,-5.140702E-05
583.6046,-5.137877E-05
583.7045,-5.137029E-05
583.8045,-5.136653E-05
583.9045,-5.133922E-05
584.0045,-5.133827E-05
584.1044,-5.130908E-05
584.2044,-5.131002E-05
584.3044,-5.129872E-05
584.4044,-5.131097E-05
584.5043,-5.127329E-05
584.6043,-5.124598E-05
584.7043,-5.1262E-05
584.8043,-5.126576E-05
584.9042,-5.124693E-05
585.0042,-5.123563E-05
585.1042,-5.121397E-05
585.2042,-5.124033E-05
585.3041,-5.123469E-05
585.4041,-5.118101E-05
585.5041,-5.118383E-05
585.6041,-5.121491E-05
585.704,-5.118289E-05
585.804,-5.112639E-05
585.904,-5.114804E-05
586.004,-5.11537E-05
586.1039,-5.111979E-05
586.2039,-5.111132E-05
586.3039,-5.112921E-05
586.4039,-5.109343E-05
586.5038,-5.110943E-05
586.6038,-5.105575E-05
586.7038,-5.1068E-05
586.8038,-5.106705E-05
586.9037,-5.106705E-05
587.0037,-5.104822E-05
587.1037,-5.103127E-05
587.2037,-5.102939E-05
587.3036,-5.100961E-05
587.4036,-5.103598E-05
587.5036,-5.105858E-05
587.6036,-5.097947E-05
587.7036,-5.099266E-05
587.8035,-5.101526E-05
587.9035,-5.095499E-05
588.0035,-5.095028E-05
588.1035,-5.097571E-05
588.2034,-5.099737E-05
588.3034,-5.091544E-05
588.4034,-5.093333E-05
588.5034,-5.090696E-05
588.6033,-5.089189E-05
588.7033,-5.090319E-05
588.8033,-5.089566E-05
588.9033,-5.085046E-05
589.0032,-5.085893E-05
589.1032,-5.086082E-05
589.2032,-5.082786E-05
589.3032,-5.083916E-05
589.4031,-5.083633E-05
589.5031,-5.078925E-05
589.6031,-5.080525E-05
589.7031,-5.078454E-05
589.803,-5.077889E-05
589.903,-5.077229E-05
590.003,-5.076853E-05
590.103,-5.073368E-05
590.2029,-5.07318E-05
590.3029,-5.074781E-05
590.4029,-5.072615E-05
590.5029,-5.074028E-05
590.6028,-5.071391E-05
590.7028,-5.0664E-05
590.8028,-5.068377E-05
590.9028,-5.069319E-05
591.0027,-5.0664E-05
591.1027,-5.065646E-05
591.2027,-5.064705E-05
591.3027,-5.06122E-05
591.4026,-5.061502E-05
591.5026,-5.063198E-05
591.6026,-5.060561E-05
591.7026,-5.059431E-05
591.8026,-5.060184E-05
591.9025,-5.058395E-05
592.0025,-5.056323E-05
592.1025,-5.055475E-05
592.2025,-5.054157E-05
592.3024,-5.05378E-05
592.4024,-5.055475E-05
592.5024,-5.052744E-05
592.6024,-5.049072E-05
592.7023,-5.052462E-05
592.8023,-5.052179E-05
592.9023,-5.046717E-05
593.0023,-5.047659E-05
593.1022,-5.048412E-05
593.2022,-5.047376E-05
593.3022,-5.046623E-05
593.4022,-5.043704E-05
593.5021,-5.042009E-05
593.6021,-5.044269E-05
593.7021,-5.043327E-05
593.8021,-5.040408E-05
593.902,-5.04135E-05
594.002,-5.04069E-05
594.102,-5.038336E-05
594.202,-5.03909E-05
594.3019,-5.037771E-05
594.4019,-5.039372E-05
594.5019,-5.038336E-05
594.6019,-5.038147E-05
594.7018,-5.038053E-05
594.8018,-5.037489E-05
594.9018,-5.038618E-05
595.0018,-5.036641E-05
595.1017,-5.035605E-05
595.2017,-5.036452E-05
595.3017,-5.032874E-05
595.4017,-5.030331E-05
595.5016,-5.031744E-05
595.6016,-5.030802E-05
595.7016,-5.027412E-05
595.8016,-5.02826E-05
595.9016,-5.026659E-05
596.0015,-5.021667E-05
596.1015,-5.024304E-05
596.2015,-5.02534E-05
596.3015,-5.017712E-05
596.4014,-5.01856E-05
596.5014,-5.022327E-05
596.6014,-5.021479E-05
596.7014,-5.016205E-05
596.8013,-5.016676E-05
596.9013,-5.017524E-05
597.0013,-5.014981E-05
597.1013,-5.013757E-05
597.2012,-5.013097E-05
597.3012,-5.011402E-05
597.4012,-5.011591E-05
597.5012,-5.00999E-05
597.6011,-5.008295E-05
597.7011,-5.007353E-05
597.8011,-5.006223E-05
597.9011,-5.006411E-05
598.001,-5.006223E-05
598.101,-5.004151E-05
598.201,-5.001043E-05
598.301,-5.002927E-05
598.4009,-5.001137E-05
598.5009,-4.999819E-05
598.6009,-4.999536E-05
598.7009,-4.995204E-05
598.8008,-4.99577E-05
598.9008,-4.997465E-05
599.0008,-4.997276E-05
599.1008,-4.993698E-05
599.2007,-4.992191E-05
599.3007,-4.991532E-05
599.4007,-4.992097E-05
599.5007,-4.992568E-05
599.6006,-4.989366E-05
599.7006,-4.98428E-05
599.8006,-4.989366E-05
599.9006,-4.989554E-05
600.0005,-4.986917E-05
