EXPID. 0621
[电化学]: i-t : @ 0(V) X 600(sec)
起始电位 (V),0
静置时间 (秒),0
运行时间 (秒),600
记录间隔,0.1
电解液 信息:
HNO3,0.4
0.1,-0.01005814
0.2,-0.01005814
0.3,-0.01005814
0.4,-0.01005814
0.5,-0.01005814
0.6,-0.01005814
0.7,-0.01005814
0.8000001,-0.01005814
0.9000001,-0.01005814
1,-0.01005814
1.1,-0.01005814
1.2,-0.01005814
1.3,-0.01004071
1.4,0.0005208577
1.5,0.001421888
1.6,-0.002552655
1.7,-0.00529461
1.8,-0.00604296
1.9,-0.006163174
2,-0.006144374
2.1,-0.006072802
2.2,-0.005956966
2.3,-0.005802687
2.4,-0.005616494
2.5,-0.005440537
2.6,-0.005276502
2.7,-0.005122553
2.799999,-0.004982179
2.899999,-0.004851384
2.999999,-0.004737109
3.099999,-0.004625668
3.199999,-0.004519557
3.299999,-0.004430782
3.399999,-0.004349253
3.499999,-0.00426007
3.599999,-0.004184392
3.699999,-0.004113025
3.799999,-0.004041749
3.899998,-0.003973638
3.999998,-0.003911182
4.099998,-0.003844251
4.199998,-0.003785398
4.299998,-0.003719937
4.399998,-0.003658288
4.499998,-0.00359611
4.599998,-0.003532948
4.699998,-0.0034729
4.799998,-0.003412123
4.899998,-0.003349585
4.999998,-0.003288055
5.099998,-0.003220572
5.199997,-0.003160307
5.299997,-0.003093397
5.399997,-0.003026627
5.499997,-0.002961482
5.599997,-0.002894805
5.699997,-0.002825951
5.799997,-0.002763342
5.899997,-0.002709767
5.999997,-0.002656693
6.099997,-0.002609132
6.199996,-0.002565437
6.299996,-0.00252478
6.399996,-0.002486804
6.499996,-0.002451011
6.599996,-0.002417281
6.699996,-0.002385468
6.799996,-0.002355611
6.899996,-0.0023275
6.999996,-0.002300611
7.099996,-0.002274681
7.199996,-0.002251033
7.299995,-0.002227006
7.399995,-0.00220525
7.499995,-0.002184058
7.599995,-0.002162438
7.699995,-0.002142995
7.799995,-0.002124763
7.899995,-0.002105557
7.999995,-0.002088821
8.099995,-0.002072826
8.199995,-0.002055838
8.299995,-0.002040266
8.399996,-0.002026504
8.499996,-0.002010238
8.599997,-0.001996274
8.699997,-0.001983106
8.799997,-0.001968652
8.899998,-0.001955145
8.999998,-0.001943099
9.099998,-0.001930591
9.199999,-0.001917641
9.299999,-0.001906219
9.4,-0.001894192
9.5,-0.001882059
9.6,-0.001871013
9.700001,-0.001860194
9.800001,-0.001849403
9.900002,-0.00183857
10,-0.001828593
10.1,-0.001818142
10.2,-0.001808363
10.3,-0.001798684
10.4,-0.001788841
10.5,-0.001779623
10.6,-0.001770542
10.7,-0.001761404
10.8,-0.001753042
10.90001,-0.001744515
11.00001,-0.001736005
11.10001,-0.001728118
11.20001,-0.001719845
11.30001,-0.001711998
11.40001,-0.001703983
11.50001,-0.001696499
11.60001,-0.001689123
11.70001,-0.001681582
11.80001,-0.00167454
11.90001,-0.001667388
12.00001,-0.001660059
12.10001,-0.001653272
12.20001,-0.001646751
12.30001,-0.001639631
12.40001,-0.001633286
12.50001,-0.00162715
12.60001,-0.001620131
12.70001,-0.001614043
12.80001,-0.00160804
12.90001,-0.001601746
13.00001,-0.00159595
13.10001,-0.001590056
13.20001,-0.001584173
13.30001,-0.001578479
13.40001,-0.001572766
13.50002,-0.001567212
13.60002,-0.001561624
13.70002,-0.001556413
13.80002,-0.001551005
13.90002,-0.001545797
14.00002,-0.001540459
14.10002,-0.001535683
14.20002,-0.001530459
14.30002,-0.00152545
14.40002,-0.001520656
14.50002,-0.001515654
14.60002,-0.00151087
14.70002,-0.001506048
14.80002,-0.001501135
14.90002,-0.001496451
15.00002,-0.001491974
15.10002,-0.001487221
15.20002,-0.001482782
15.30002,-0.001478271
15.40002,-0.001473765
15.50002,-0.00146949
15.60002,-0.001465076
15.70002,-0.001460877
15.80002,-0.001456635
15.90002,-0.001452339
16.00002,-0.001448222
16.10003,-0.001444267
16.20003,-0.001440169
16.30003,-0.001436182
16.40003,-0.001432227
16.50003,-0.001428124
16.60003,-0.001424349
16.70003,-0.001420453
16.80003,-0.001416466
16.90003,-0.001412901
17.00003,-0.00140899
17.10003,-0.001405312
17.20003,-0.001401665
17.30003,-0.001397925
17.40003,-0.001394397
17.50003,-0.001391014
17.60003,-0.00138715
17.70003,-0.001383934
17.80003,-0.001380662
17.90003,-0.001376888
18.00003,-0.00137367
18.10003,-0.001370386
18.20003,-0.00136681
18.30003,-0.001363633
18.40003,-0.001360324
18.50003,-0.001357016
18.60003,-0.001353856
18.70004,-0.001350692
18.80004,-0.001347478
18.90004,-0.001344628
19.00004,-0.001341441
19.10004,-0.001338165
19.20004,-0.001335317
19.30004,-0.001332349
19.40004,-0.001329212
19.50004,-0.001326232
19.60004,-0.001323472
19.70004,-0.001320336
19.80004,-0.001317414
19.90004,-0.001314675
20.00004,-0.001311603
20.10004,-0.001308932
20.20004,-0.001306356
20.30004,-0.001303312
20.40004,-0.001300657
20.50004,-0.001297986
20.60004,-0.001295101
20.70004,-0.00129245
20.80004,-0.001289944
20.90004,-0.001287054
21.00004,-0.001284434
21.10004,-0.001281967
21.20004,-0.001279267
21.30005,-0.001276636
21.40005,-0.001274301
21.50005,-0.001271701
21.60005,-0.001269009
21.70005,-0.00126669
21.80005,-0.001264114
21.90005,-0.001261526
22.00005,-0.001259045
22.10005,-0.001256767
22.20005,-0.001254214
22.30005,-0.001251668
22.40005,-0.001249362
22.50005,-0.001246977
22.60005,-0.001244525
22.70005,-0.001242382
22.80005,-0.001239926
22.90005,-0.001237543
23.00005,-0.001235408
23.10005,-0.001232947
23.20005,-0.001230633
23.30005,-0.001228395
23.40005,-0.001226153
23.50005,-0.001223809
23.60005,-0.001221731
23.70005,-0.001219392
23.80005,-0.001217125
23.90005,-0.001214995
24.00006,-0.001212744
24.10006,-0.001210645
24.20006,-0.001208432
24.30006,-0.001206287
24.40006,-0.001204179
24.50006,-0.001202063
24.60006,-0.001200012
24.70006,-0.00119791
24.80006,-0.001195807
24.90006,-0.001193764
25.00006,-0.001191857
25.10006,-0.001189673
25.20006,-0.00118761
25.30006,-0.001185699
25.40006,-0.001183623
25.50006,-0.001181563
25.60006,-0.001179648
25.70006,-0.001177507
25.80006,-0.001175624
25.90006,-0.001173729
26.00006,-0.001171647
26.10006,-0.001169762
26.20006,-0.001167858
26.30006,-0.00116596
26.40006,-0.001164056
26.50006,-0.001162254
26.60007,-0.001160389
26.70007,-0.001158551
26.80007,-0.001156589
26.90007,-0.001154804
27.00007,-0.001152979
27.10007,-0.001151113
27.20007,-0.001149385
27.30007,-0.001147794
27.40007,-0.001145866
27.50007,-0.001143985
27.60007,-0.001142206
27.70007,-0.00114042
27.80007,-0.001138599
27.90007,-0.001136912
28.00007,-0.001135156
28.10007,-0.001133362
28.20007,-0.001131552
28.30007,-0.001129915
28.40007,-0.001128191
28.50007,-0.001126412
28.60007,-0.001124796
28.70007,-0.001123113
28.80007,-0.001121319
28.90007,-0.001119758
29.00007,-0.001118027
29.10007,-0.001116357
29.20008,-0.001114709
29.30008,-0.001112974
29.40008,-0.001111421
29.50008,-0.001109764
29.60008,-0.001108131
29.70008,-0.001106516
29.80008,-0.001104848
29.90008,-0.001103301
30.00008,-0.001101723
30.10008,-0.001100098
30.20008,-0.001098538
30.30008,-0.001097029
30.40008,-0.001095361
30.50008,-0.001093855
30.60008,-0.001092274
30.70008,-0.001090723
30.80008,-0.001089338
30.90008,-0.001087856
31.00008,-0.001086202
31.10008,-0.001084845
31.20008,-0.001083305
31.30008,-0.001081788
31.40008,-0.001080446
31.50008,-0.001079066
31.60008,-0.001077641
31.70008,-0.001076297
31.80009,-0.001074772
31.90009,-0.001073464
32.00008,-0.00107199
32.10008,-0.001070525
32.20008,-0.001069242
32.30008,-0.001067907
32.40008,-0.001066335
32.50008,-0.001064984
32.60007,-0.001063569
32.70007,-0.001062103
32.80007,-0.001060694
32.90007,-0.001059245
33.00007,-0.001057863
33.10007,-0.00105651
33.20007,-0.001054993
33.30006,-0.00105371
33.40006,-0.001052347
33.50006,-0.001050901
33.60006,-0.001049541
33.70006,-0.001048383
33.80006,-0.001047078
33.90005,-0.001045719
34.00005,-0.001044371
34.10005,-0.001043153
34.20005,-0.001041848
34.30005,-0.001040528
34.40005,-0.001039062
34.50005,-0.001037871
34.60004,-0.001036524
34.70004,-0.001035141
34.80004,-0.001033872
34.90004,-0.001032523
35.00004,-0.00103133
35.10004,-0.001029938
35.20004,-0.001028622
35.30003,-0.001027354
35.40003,-0.001026107
35.50003,-0.001024809
35.60003,-0.001023599
35.70003,-0.001022265
35.80003,-0.001020951
35.90002,-0.001019733
36.00002,-0.001018488
36.10002,-0.001017313
36.20002,-0.001016011
36.30002,-0.001014722
36.40002,-0.001013424
36.50002,-0.001012206
36.60001,-0.001010941
36.70001,-0.001009687
36.80001,-0.001008489
36.90001,-0.001007247
37.00001,-0.001005994
37.10001,-0.001004797
37.2,-0.00100351
37.3,-0.001002324
37.4,-0.001001061
37.5,-0.0009999527
37.6,-0.0009986711
37.7,-0.0009975919
37.8,-0.0009963799
37.89999,-0.0009951141
37.99999,-0.0009940199
38.09999,-0.0009928352
38.19999,-0.0009916024
38.29999,-0.0009904667
38.39999,-0.000989265
38.49998,-0.0009880832
38.59998,-0.0009869464
38.69998,-0.0009857552
38.79998,-0.000984546
38.89998,-0.0009835185
38.99998,-0.0009822623
39.09998,-0.0009810833
39.19997,-0.0009800596
39.29997,-0.0009788636
39.39997,-0.0009776837
39.49997,-0.0009765639
39.59997,-0.0009755139
39.69997,-0.0009743141
39.79996,-0.0009731774
39.89996,-0.0009721123
39.99996,-0.0009710426
40.09996,-0.0009697618
40.19996,-0.0009688484
40.29996,-0.000967739
40.39996,-0.0009665486
40.49995,-0.0009655146
40.59995,-0.0009645653
40.69995,-0.0009633015
40.79995,-0.000962293
40.89995,-0.0009613191
40.99995,-0.0009602098
41.09995,-0.0009592238
41.19994,-0.0009582124
41.29994,-0.000957055
41.39994,-0.0009561105
41.49994,-0.000955114
41.59994,-0.0009541046
41.69994,-0.0009531553
41.79993,-0.0009521579
41.89993,-0.0009511212
41.99993,-0.0009501445
42.09993,-0.0009491313
42.19993,-0.0009480304
42.29993,-0.0009470783
42.39993,-0.0009459548
42.49992,-0.0009448521
42.59992,-0.0009438049
42.69992,-0.0009427643
42.79992,-0.0009417179
42.89992,-0.0009406293
42.99992,-0.0009395539
43.09991,-0.0009385199
43.19991,-0.0009374736
43.29991,-0.0009364103
43.39991,-0.0009353801
43.49991,-0.0009343065
43.59991,-0.0009334109
43.69991,-0.0009325681
43.7999,-0.0009313636
43.8999,-0.0009303155
43.9999,-0.0009294472
44.0999,-0.0009283755
44.1999,-0.0009273764
44.2999,-0.0009264667
44.39989,-0.0009253394
44.49989,-0.0009243477
44.59989,-0.0009234531
44.69989,-0.000922357
44.79989,-0.0009213634
44.89989,-0.0009204358
44.99989,-0.0009193961
45.09988,-0.0009184647
45.19988,-0.0009175569
45.29988,-0.0009164748
45.39988,-0.0009154465
45.49988,-0.0009144784
45.59988,-0.0009135932
45.69987,-0.0009125987
45.79987,-0.0009116579
45.89987,-0.0009107887
45.99987,-0.0009098215
46.09987,-0.0009088393
46.19987,-0.0009079211
46.29987,-0.0009069389
46.39986,-0.0009060584
46.49986,-0.0009050808
46.59986,-0.0009040835
46.69986,-0.0009032313
46.79986,-0.0009023122
46.89986,-0.0009013055
46.99986,-0.0009004588
47.09985,-0.0008996047
47.19985,-0.0008985791
47.29985,-0.0008977599
47.39985,-0.000896756
47.49985,-0.0008958086
47.59985,-0.0008949045
47.69984,-0.0008940654
47.79984,-0.0008931595
47.89984,-0.0008922366
47.99984,-0.0008913128
48.09984,-0.0008904831
48.19984,-0.0008894858
48.29984,-0.0008886288
48.39983,-0.000887754
48.49983,-0.0008868141
48.59983,-0.0008859016
48.69983,-0.0008850059
48.79983,-0.0008840586
48.89983,-0.000883195
48.99982,-0.000882306
49.09982,-0.0008813775
49.19982,-0.0008804753
49.29982,-0.000879591
49.39982,-0.0008787293
49.49982,-0.00087783
49.59982,-0.0008768553
49.69981,-0.0008761057
49.79981,-0.0008752562
49.89981,-0.0008742495
49.99981,-0.0008733379
50.09981,-0.0008725855
50.19981,-0.0008716296
50.2998,-0.0008708376
50.3998,-0.0008700032
50.4998,-0.000869069
50.5998,-0.0008682799
50.6998,-0.0008673542
50.7998,-0.0008665763
50.8998,-0.0008657259
50.99979,-0.0008648859
51.09979,-0.0008641324
51.19979,-0.0008633499
51.29979,-0.0008624534
51.39979,-0.000861716
51.49979,-0.0008609052
51.59978,-0.0008601029
51.69978,-0.0008593429
51.79978,-0.0008584868
51.89978,-0.0008576402
51.99978,-0.0008568642
52.09978,-0.0008560882
52.19978,-0.0008551587
52.29977,-0.0008543244
52.39977,-0.00085357
52.49977,-0.0008527414
52.59977,-0.0008519258
52.69977,-0.0008511404
52.79977,-0.0008504143
52.89977,-0.000849515
52.99976,-0.0008487945
53.09976,-0.0008480044
53.19976,-0.0008471484
53.29976,-0.000846265
53.39976,-0.00084557
53.49976,-0.0008446433
53.59975,-0.0008437515
53.69975,-0.000843049
53.79975,-0.0008421355
53.89975,-0.0008412061
53.99975,-0.0008404809
54.09975,-0.0008395787
54.19975,-0.0008386925
54.29974,-0.0008379401
54.39974,-0.0008370333
54.49974,-0.000836278
54.59974,-0.0008354379
54.69974,-0.0008346035
54.79974,-0.0008337522
54.89973,-0.0008329809
54.99973,-0.0008322126
55.09973,-0.0008313216
55.19973,-0.0008305475
55.29973,-0.0008297396
55.39973,-0.000828957
55.49973,-0.0008281593
55.59972,-0.0008273211
55.69972,-0.0008263823
55.79972,-0.0008256685
55.89972,-0.0008249216
55.99972,-0.0008241052
56.09972,-0.000823234
56.19971,-0.0008225862
56.29971,-0.0008217047
56.39971,-0.0008209079
56.49971,-0.0008201687
56.59971,-0.0008193626
56.69971,-0.0008186092
56.79971,-0.0008178229
56.8997,-0.0008170063
56.9997,-0.0008162567
57.0997,-0.0008155419
57.1997,-0.000814846
57.2997,-0.0008141115
57.3997,-0.000813408
57.49969,-0.0008127054
57.59969,-0.0008120349
57.69969,-0.0008112703
57.79969,-0.0008105875
57.89969,-0.0008098935
57.99969,-0.000809174
58.09969,-0.0008083867
58.19968,-0.0008077256
58.29968,-0.0008069374
58.39968,-0.0008062499
58.49968,-0.0008055323
58.59968,-0.0008048335
58.69968,-0.0008041235
58.79967,-0.0008033079
58.89967,-0.0008026224
58.99967,-0.0008018191
59.09967,-0.0008009772
59.19967,-0.0008002511
59.29967,-0.0007994713
59.39967,-0.0007986078
59.49966,-0.000797859
59.59966,-0.0007970501
59.69966,-0.0007962563
59.79966,-0.0007955396
59.89966,-0.0007946525
59.99966,-0.0007938577
60.09966,-0.0007931778
60.19965,-0.0007923688
60.29965,-0.0007915749
60.39965,-0.000790943
60.49965,-0.0007901199
60.59965,-0.0007893854
60.69965,-0.0007886527
60.79964,-0.0007880368
60.89964,-0.000787308
60.99964,-0.0007865715
61.09964,-0.0007859283
61.19964,-0.0007852521
61.29964,-0.0007844893
61.39964,-0.0007838989
61.49963,-0.0007831794
61.59963,-0.0007823676
61.69963,-0.0007817526
61.79963,-0.0007812215
61.89963,-0.0007805143
61.99963,-0.0007799059
62.09962,-0.0007793672
62.19962,-0.0007786364
62.29962,-0.0007779311
62.39962,-0.0007772511
62.49962,-0.0007765157
62.59962,-0.0007757896
62.69962,-0.0007750871
62.79961,-0.0007743036
62.89961,-0.0007735059
62.99961,-0.0007727337
63.09961,-0.00077197
63.19961,-0.0007712561
63.29961,-0.0007704538
63.3996,-0.0007696918
63.4996,-0.0007689546
63.5996,-0.0007681626
63.6996,-0.0007674148
63.7996,-0.0007667094
63.8996,-0.0007659636
63.9996,-0.0007651725
64.09959,-0.0007644964
64.19959,-0.0007637392
64.29959,-0.0007629896
64.39959,-0.000762303
64.49959,-0.0007616062
64.59959,-0.0007608255
64.69958,-0.0007601833
64.79958,-0.0007594082
64.89958,-0.0007586661
64.99958,-0.0007580107
65.09958,-0.0007572894
65.19958,-0.0007565501
65.29958,-0.0007558786
65.39957,-0.0007553211
65.49957,-0.000754627
65.59957,-0.0007538972
65.69957,-0.0007531994
65.79957,-0.000752495
65.89957,-0.0007517905
65.99957,-0.000751169
66.09956,-0.0007504128
66.19956,-0.0007496726
66.29956,-0.0007490002
66.39956,-0.0007483513
66.49956,-0.0007476074
66.59956,-0.0007469199
66.69955,-0.0007463059
66.79955,-0.0007455685
66.89955,-0.0007449046
66.99955,-0.0007442077
67.09955,-0.0007435118
67.19955,-0.0007428884
67.29955,-0.0007421792
67.39954,-0.0007414701
67.49954,-0.000740858
67.59954,-0.0007401705
67.69954,-0.0007394783
67.79954,-0.0007388257
67.89954,-0.0007381119
67.99953,-0.0007374432
68.09953,-0.000736848
68.19953,-0.0007361729
68.29953,-0.0007355372
68.39953,-0.0007348394
68.49953,-0.0007342508
68.59953,-0.0007335736
68.69952,-0.0007328844
68.79952,-0.0007322947
68.89952,-0.0007316225
68.99952,-0.000730983
69.09952,-0.0007303445
69.19952,-0.0007296937
69.29951,-0.0007290393
69.39951,-0.0007283734
69.49951,-0.0007277105
69.59951,-0.0007270814
69.69951,-0.0007264457
69.79951,-0.0007257837
69.89951,-0.0007250971
69.9995,-0.0007244511
70.0995,-0.0007238729
70.1995,-0.0007231855
70.2995,-0.0007225309
70.3995,-0.0007218953
70.4995,-0.0007212577
70.59949,-0.0007206296
70.69949,-0.0007200128
70.79949,-0.0007192641
70.89949,-0.0007186661
70.99949,-0.0007180728
71.09949,-0.0007173834
71.19949,-0.0007167082
71.29948,-0.0007160688
71.39948,-0.0007153823
71.49948,-0.0007148182
71.59948,-0.0007142004
71.69948,-0.000713512
71.79948,-0.0007130025
71.89948,-0.0007123518
71.99947,-0.0007116313
72.09947,-0.0007110023
72.19947,-0.0007104448
72.29947,-0.0007097686
72.39947,-0.0007091423
72.49947,-0.0007085556
72.59946,-0.0007078983
72.69946,-0.0007072908
72.79946,-0.0007066797
72.89946,-0.0007060507
72.99946,-0.0007054385
73.09946,-0.0007048057
73.19946,-0.0007041926
73.29945,-0.0007035409
73.39945,-0.0007029477
73.49945,-0.0007023619
73.59945,-0.0007017347
73.69945,-0.0007011056
73.79945,-0.000700486
73.89944,-0.0006998898
73.99944,-0.0006993173
74.09944,-0.0006986891
74.19944,-0.0006980186
74.29944,-0.0006974715
74.39944,-0.0006969498
74.49944,-0.0006962887
74.59943,-0.0006957161
74.69943,-0.0006951049
74.79943,-0.0006945031
74.89943,-0.0006939278
74.99943,-0.0006934126
75.09943,-0.0006927138
75.19942,-0.0006921149
75.29942,-0.0006915857
75.39942,-0.0006909425
75.49942,-0.0006903209
75.59942,-0.0006897605
75.69942,-0.0006891862
75.79942,-0.0006886135
75.89941,-0.0006880541
75.99941,-0.0006873884
76.09941,-0.0006868751
76.19941,-0.000686264
76.29941,-0.000685746
76.39941,-0.0006851291
76.4994,-0.000684517
76.5994,-0.0006840103
76.6994,-0.0006833973
76.7994,-0.0006828586
76.8994,-0.000682287
76.9994,-0.0006816456
77.0994,-0.0006811277
77.19939,-0.0006805994
77.29939,-0.0006799327
77.39939,-0.0006793272
77.49939,-0.000678796
77.59939,-0.0006782102
77.69939,-0.0006776612
77.79939,-0.0006770952
77.89938,-0.0006764322
77.99938,-0.0006758606
78.09938,-0.0006753596
78.19938,-0.0006747588
78.29938,-0.0006741787
78.39938,-0.0006736211
78.49937,-0.0006730203
78.59937,-0.0006724581
78.69937,-0.0006718724
78.79937,-0.000671281
78.89937,-0.0006706773
78.99937,-0.0006701358
79.09937,-0.0006695981
79.19936,-0.0006690077
79.29936,-0.0006684577
79.39936,-0.0006678013
79.49936,-0.000667322
79.59936,-0.0006667823
79.69936,-0.0006662342
79.79935,-0.0006655712
79.89935,-0.0006650289
79.99935,-0.0006645109
80.09935,-0.0006639044
80.19935,-0.0006633695
80.29935,-0.000662795
80.39935,-0.0006621829
80.49934,-0.0006616641
80.59934,-0.0006611366
80.69934,-0.0006605095
80.79934,-0.0006599341
80.89934,-0.0006594246
80.99934,-0.000658837
81.09933,-0.0006583039
81.19933,-0.0006577812
81.29933,-0.0006571437
81.39933,-0.0006566521
81.49933,-0.0006560824
81.59933,-0.0006555098
81.69933,-0.0006549702
81.79932,-0.0006544108
81.89932,-0.0006539418
81.99932,-0.0006533494
82.09932,-0.0006528051
82.19932,-0.0006522702
82.29932,-0.0006517316
82.39931,-0.0006511571
82.49931,-0.0006506769
82.59931,-0.0006501372
82.69931,-0.0006495892
82.79931,-0.0006490062
82.89931,-0.0006484714
82.99931,-0.0006479496
83.0993,-0.0006474429
83.1993,-0.0006468788
83.2993,-0.0006462969
83.3993,-0.0006457723
83.4993,-0.0006452647
83.5993,-0.0006447929
83.6993,-0.0006442053
83.79929,-0.0006436384
83.89929,-0.0006431637
83.99929,-0.0006426928
84.09929,-0.000642075
84.19929,-0.0006416108
84.29929,-0.0006410815
84.39928,-0.0006405495
84.49928,-0.0006400701
84.59928,-0.0006396021
84.69928,-0.0006390154
84.79928,-0.0006384795
84.89928,-0.000637955
84.99928,-0.0006374474
85.09927,-0.0006369464
85.19927,-0.0006363983
85.29927,-0.0006358832
85.39927,-0.0006353568
85.49927,-0.0006347701
85.59927,-0.0006342963
85.69926,-0.000633736
85.79926,-0.0006332379
85.89926,-0.000632685
85.99926,-0.0006321709
86.09926,-0.0006315795
86.19926,-0.0006310935
86.29926,-0.0006305464
86.39925,-0.0006299804
86.49925,-0.0006295096
86.59925,-0.0006289389
86.69925,-0.000628404
86.79925,-0.0006279048
86.89925,-0.0006273342
86.99924,-0.0006268153
87.09924,-0.0006262738
87.19924,-0.0006258095
87.29924,-0.0006252454
87.39924,-0.0006247547
87.49924,-0.0006242001
87.59924,-0.0006236774
87.69923,-0.00062315
87.79923,-0.000622666
87.89923,-0.000622083
87.99923,-0.0006215764
88.09923,-0.0006211036
88.19923,-0.0006205641
88.29922,-0.0006200282
88.39922,-0.0006194914
88.49922,-0.0006189216
88.59922,-0.0006185412
88.69922,-0.0006180439
88.79922,-0.0006174939
88.89922,-0.0006170241
88.99921,-0.0006165522
89.09921,-0.0006160042
89.19921,-0.0006155898
89.29921,-0.0006150191
89.39921,-0.0006145275
89.49921,-0.0006140764
89.59921,-0.0006135783
89.6992,-0.0006130735
89.7992,-0.0006125659
89.8992,-0.000612047
89.9992,-0.0006115478
90.0992,-0.0006110535
90.1992,-0.000610641
90.29919,-0.0006101701
90.39919,-0.0006095514
90.49919,-0.0006092152
90.59919,-0.0006088546
90.69919,-0.0006083234
90.79919,-0.0006079401
90.89919,-0.0006076124
90.99918,-0.0006071773
91.09918,-0.0006067667
91.19918,-0.000606503
91.29918,-0.0006060143
91.39918,-0.000605599
91.49918,-0.0006052195
91.59917,-0.0006046779
91.69917,-0.0006041902
91.79917,-0.0006036958
91.89917,-0.0006031684
91.99917,-0.0006026194
92.09917,-0.0006020704
92.19917,-0.0006015147
92.29916,-0.0006009318
92.39916,-0.0006003554
92.49916,-0.0005998186
92.59916,-0.0005992583
92.69916,-0.0005986961
92.79916,-0.0005982111
92.89915,-0.0005976621
92.99915,-0.0005970547
93.09915,-0.0005965405
93.19915,-0.0005960479
93.29915,-0.0005955366
93.39915,-0.0005949838
93.49915,-0.0005944338
93.59914,-0.0005939328
93.69914,-0.0005933697
93.79914,-0.0005928564
93.89914,-0.0005923761
93.99914,-0.000591813
94.09914,-0.0005912903
94.19913,-0.0005908082
94.29913,-0.0005903664
94.39913,-0.0005898005
94.49913,-0.0005892778
94.59913,-0.0005887966
94.69913,-0.0005883408
94.79913,-0.0005877635
94.89912,-0.0005872663
94.99912,-0.0005868435
95.09912,-0.0005862869
95.19912,-0.0005857171
95.29912,-0.0005853395
95.39912,-0.0005849167
95.49911,-0.0005843582
95.59911,-0.0005839072
95.69911,-0.0005834486
95.79911,-0.0005830238
95.89911,-0.0005827018
95.99911,-0.0005823288
96.09911,-0.000581921
96.1991,-0.0005816225
96.2991,-0.0005813824
96.3991,-0.0005809237
96.4991,-0.0005805847
96.5991,-0.0005802457
96.6991,-0.0005797814
96.7991,-0.0005792757
96.89909,-0.0005789113
96.99909,-0.0005783924
97.09909,-0.0005778226
97.19909,-0.0005773969
97.29909,-0.0005768771
97.39909,-0.0005763064
97.49908,-0.0005757998
97.59908,-0.0005752319
97.69908,-0.0005746631
97.79908,-0.0005741424
97.89908,-0.0005736075
97.99908,-0.0005731093
98.09908,-0.0005725056
98.19907,-0.0005719904
98.29907,-0.0005714894
98.39907,-0.0005709254
98.49907,-0.0005703867
98.59907,-0.0005699337
98.69907,-0.0005694101
98.79906,-0.0005689195
98.89906,-0.000568459
98.99906,-0.0005679147
99.09906,-0.0005674023
99.19906,-0.000566956
99.29906,-0.0005664813
99.39906,-0.0005659869
99.49905,-0.0005654605
99.59905,-0.000565065
99.69905,-0.0005646252
99.79905,-0.0005640621
99.89905,-0.0005635553
99.99905,-0.0005631524
100.099,-0.0005626174
100.199,-0.0005620995
100.299,-0.0005616606
100.399,-0.0005611596
100.499,-0.0005606615
100.599,-0.0005602
100.699,-0.0005596614
100.799,-0.0005592197
100.899,-0.0005586857
100.999,-0.0005582299
101.099,-0.0005577647
101.199,-0.0005572505
101.299,-0.0005567758
101.399,-0.000556337
101.499,-0.0005558586
101.599,-0.0005553613
101.699,-0.0005549357
101.799,-0.0005544564
101.899,-0.0005539714
101.999,-0.0005535118
102.099,-0.0005530702
102.199,-0.0005525964
102.299,-0.0005521133
102.399,-0.0005516472
102.499,-0.0005511442
102.599,-0.0005507186
102.699,-0.0005502337
102.799,-0.0005497354
102.899,-0.0005492429
102.999,-0.0005487975
103.099,-0.0005483474
103.199,-0.0005478219
103.299,-0.0005474217
103.399,-0.000546979
103.499,-0.0005464723
103.599,-0.000546026
103.699,-0.0005455344
103.799,-0.0005450184
103.899,-0.0005445984
103.999,-0.0005441614
104.099,-0.0005436377
104.199,-0.0005432262
104.299,-0.0005428005
104.399,-0.000542307
104.499,-0.0005419116
104.599,-0.0005414916
104.699,-0.0005410357
104.799,-0.0005406318
104.899,-0.0005402334
104.999,-0.0005398181
105.099,-0.000539384
105.199,-0.0005390845
105.299,-0.0005386014
105.399,-0.0005381823
105.499,-0.0005377972
105.599,-0.0005373715
105.699,-0.0005369335
105.799,-0.0005365541
105.899,-0.0005361181
105.999,-0.0005356763
106.099,-0.0005352639
106.199,-0.000534826
106.299,-0.0005343928
106.3989,-0.0005340123
106.4989,-0.0005335932
106.5989,-0.0005331262
106.6989,-0.0005326816
106.7989,-0.0005322569
106.8989,-0.0005318115
106.9989,-0.0005314141
107.0989,-0.0005310007
107.1989,-0.0005305025
107.2989,-0.0005300929
107.3989,-0.0005296926
107.4989,-0.0005292246
107.5989,-0.0005288073
107.6989,-0.0005284325
107.7989,-0.0005280286
107.8989,-0.0005275474
107.9989,-0.0005271273
108.0989,-0.0005267441
108.1989,-0.0005262656
108.2989,-0.0005258946
108.3989,-0.0005255132
108.4989,-0.0005250311
108.5989,-0.0005246327
108.6989,-0.0005242127
108.7989,-0.0005238162
108.8989,-0.0005234169
108.9989,-0.0005230176
109.0989,-0.0005225316
109.1989,-0.0005220966
109.2989,-0.0005217124
109.3989,-0.000521266
109.4989,-0.0005208648
109.5989,-0.0005204561
109.6989,-0.0005200126
109.7989,-0.0005196246
109.8989,-0.000519196
109.9989,-0.0005187007
110.0989,-0.000518324
110.1989,-0.0005179342
110.2989,-0.0005174737
110.3989,-0.0005170857
110.4989,-0.0005166732
110.5989,-0.0005162098
110.6989,-0.0005158068
110.7989,-0.000515399
110.8989,-0.0005149488
110.9989,-0.0005146032
111.0989,-0.0005141635
111.1989,-0.0005137256
111.2989,-0.0005132942
111.3989,-0.0005128573
111.4989,-0.0005124269
111.5989,-0.0005120313
111.6989,-0.0005116066
111.7989,-0.0005112027
111.8989,-0.0005107657
111.9989,-0.0005103221
112.0989,-0.0005098984
112.1989,-0.0005094774
112.2989,-0.0005090979
112.3989,-0.0005086533
112.4989,-0.000508192
112.5989,-0.0005078077
112.6989,-0.0005073867
112.7989,-0.0005069601
112.8988,-0.0005065242
112.9988,-0.0005061154
113.0988,-0.0005056653
113.1988,-0.0005053008
113.2988,-0.000504862
113.3988,-0.0005043949
113.4988,-0.0005040163
113.5988,-0.0005036105
113.6988,-0.0005031754
113.7988,-0.000502744
113.8988,-0.0005023146
113.9988,-0.0005019125
114.0988,-0.0005015339
114.1988,-0.0005011176
114.2988,-0.0005006901
114.3988,-0.0005003323
114.4988,-0.0004998906
114.5988,-0.0004994998
114.6988,-0.0004990646
114.7988,-0.000498656
114.8988,-0.0004982567
114.9988,-0.0004978442
115.0988,-0.0004974327
115.1988,-0.0004970296
115.2988,-0.0004966294
115.3988,-0.0004961934
115.4988,-0.0004958006
115.5988,-0.0004954193
115.6988,-0.0004950143
115.7988,-0.0004945868
115.8988,-0.0004941846
115.9988,-0.0004937364
116.0988,-0.0004933926
116.1988,-0.0004929811
116.2988,-0.0004925714
116.3988,-0.0004921759
116.4988,-0.0004917766
116.5988,-0.0004913905
116.6988,-0.0004909809
116.7988,-0.0004905834
116.8988,-0.0004902011
116.9988,-0.0004898329
117.0988,-0.0004894307
117.1988,-0.0004890418
117.2988,-0.0004886265
117.3988,-0.0004882367
117.4988,-0.0004878901
117.5988,-0.000487519
117.6988,-0.0004870501
117.7988,-0.0004866903
117.8988,-0.0004863419
117.9988,-0.0004859294
118.0988,-0.0004855414
118.1988,-0.0004851496
118.2988,-0.0004847946
118.3988,-0.0004843906
118.4988,-0.000483996
118.5988,-0.0004835986
118.6988,-0.0004832766
118.7988,-0.0004828603
118.8988,-0.0004824987
118.9988,-0.0004820965
119.0988,-0.0004817283
119.1988,-0.0004813347
119.2988,-0.0004809184
119.3988,-0.0004805568
119.4987,-0.0004801839
119.5987,-0.0004797799
119.6987,-0.0004794381
119.7987,-0.0004790952
119.8987,-0.0004786772
119.9987,-0.0004783202
120.0987,-0.0004779623
120.1987,-0.0004775555
120.2987,-0.0004772269
120.3987,-0.0004769067
120.4987,-0.0004764886
120.5987,-0.0004761514
120.6987,-0.0004757907
120.7987,-0.0004753876
120.8987,-0.0004750062
120.9987,-0.0004746512
121.0987,-0.0004743009
121.1987,-0.0004739591
121.2987,-0.0004735965
121.3987,-0.0004732255
121.4987,-0.0004728742
121.5987,-0.0004725088
121.6987,-0.000472166
121.7987,-0.0004718364
121.8987,-0.0004715219
121.9987,-0.000471163
122.0987,-0.0004707619
122.1987,-0.0004704247
122.2987,-0.0004701093
122.3987,-0.0004697448
122.4987,-0.0004693662
122.5987,-0.000469062
122.6987,-0.0004687023
122.7987,-0.0004684047
122.8987,-0.0004680478
122.9987,-0.0004677634
123.0987,-0.0004674441
123.1987,-0.0004671202
123.2987,-0.0004668189
123.3987,-0.0004665335
123.4987,-0.0004661926
123.5987,-0.0004658988
123.6987,-0.0004655823
123.7987,-0.0004652584
123.8987,-0.0004649316
123.9987,-0.0004645728
124.0987,-0.0004642395
124.1987,-0.0004638872
124.2987,-0.0004635652
124.3987,-0.0004631875
124.4987,-0.0004628692
124.5987,-0.0004624878
124.6987,-0.0004621921
124.7987,-0.0004618625
124.8987,-0.0004614858
124.9987,-0.0004611581
125.0987,-0.0004607682
125.1987,-0.0004604226
125.2987,-0.0004601015
125.3987,-0.0004596862
125.4987,-0.0004593377
125.5987,-0.0004589272
125.6987,-0.0004586277
125.7987,-0.0004582707
125.8987,-0.0004578847
125.9986,-0.0004575372
126.0986,-0.0004571558
126.1986,-0.0004567856
126.2986,-0.0004564165
126.3986,-0.0004560718
126.4986,-0.0004556537
126.5986,-0.0004552836
126.6986,-0.0004549107
126.7986,-0.000454534
126.8986,-0.0004541978
126.9986,-0.0004538107
127.0986,-0.0004534246
127.1986,-0.0004530451
127.2986,-0.0004527183
127.3986,-0.0004523378
127.4986,-0.0004519725
127.5986,-0.0004515713
127.6986,-0.0004512031
127.7986,-0.0004508697
127.8986,-0.0004505071
127.9986,-0.0004501323
128.0986,-0.0004497415
128.1986,-0.0004493865
128.2986,-0.0004489975
128.3986,-0.0004486566
128.4986,-0.0004482762
128.5986,-0.0004478901
128.6987,-0.0004475642
128.7987,-0.0004471705
128.8987,-0.0004468353
128.9987,-0.0004464539
129.0987,-0.0004460753
129.1987,-0.0004456911
129.2987,-0.0004453361
129.3987,-0.0004449613
129.4987,-0.0004445695
129.5987,-0.0004441778
129.6987,-0.0004438472
129.7987,-0.0004435524
129.8987,-0.0004431371
129.9987,-0.000442752
130.0987,-0.0004424459
130.1987,-0.0004421201
130.2988,-0.0004417999
130.3988,-0.0004414891
130.4988,-0.0004411416
130.5988,-0.0004408911
130.6988,-0.0004404947
130.7988,-0.0004400727
130.8988,-0.0004397159
130.9988,-0.000439373
131.0988,-0.0004390237
131.1988,-0.0004386969
131.2988,-0.0004383352
131.3988,-0.0004379717
131.4988,-0.0004376741
131.5988,-0.0004373097
131.6988,-0.0004369142
131.7988,-0.0004367023
131.8988,-0.0004363774
131.9989,-0.0004359536
132.0989,-0.0004356381
132.1989,-0.0004353104
132.2989,-0.0004349732
132.3989,-0.0004346333
132.4989,-0.0004343376
132.5989,-0.0004339788
132.6989,-0.0004336746
132.7989,-0.0004334006
132.8989,-0.0004331039
132.9989,-0.0004327103
133.0989,-0.0004324089
133.1989,-0.0004321029
133.2989,-0.0004317573
133.3989,-0.0004314681
133.4989,-0.0004311753
133.599,-0.0004307929
133.699,-0.0004304718
133.799,-0.0004301798
133.899,-0.0004298361
133.999,-0.0004295093
134.099,-0.0004291788
134.199,-0.0004288266
134.299,-0.0004285525
134.399,-0.0004282286
134.499,-0.0004278519
134.599,-0.0004275364
134.699,-0.0004272388
134.799,-0.0004268857
134.899,-0.0004265937
134.999,-0.0004262604
135.099,-0.000425911
135.1991,-0.0004255711
135.2991,-0.0004252405
135.3991,-0.0004249222
135.4991,-0.0004245869
135.5991,-0.0004242168
135.6991,-0.000423907
135.7991,-0.0004235689
135.8991,-0.0004232525
135.9991,-0.0004229473
136.0991,-0.00042263
136.1991,-0.0004223108
136.2991,-0.0004220216
136.3991,-0.0004216638
136.4991,-0.0004213351
136.5991,-0.0004210517
136.6991,-0.0004206976
136.7991,-0.000420384
136.8992,-0.0004200939
136.9992,-0.0004197398
137.0992,-0.0004194262
137.1992,-0.0004190618
137.2992,-0.0004187717
137.3992,-0.0004184544
137.4992,-0.0004181417
137.5992,-0.0004178027
137.6992,-0.0004175079
137.7992,-0.0004172113
137.8992,-0.0004168647
137.9992,-0.0004165568
138.0992,-0.0004162243
138.1992,-0.0004158975
138.2992,-0.0004155877
138.3992,-0.0004152365
138.4993,-0.0004149323
138.5993,-0.0004145989
138.6993,-0.0004142307
138.7993,-0.000413935
138.8993,-0.0004136242
138.9993,-0.00041332
139.0993,-0.0004129688
139.1993,-0.0004126288
139.2993,-0.0004123444
139.3993,-0.0004120063
139.4993,-0.0004116513
139.5993,-0.0004113772
139.6993,-0.0004110731
139.7993,-0.000410703
139.8993,-0.0004104525
139.9993,-0.0004101002
140.0993,-0.0004097537
140.1994,-0.0004094778
140.2994,-0.0004092122
140.3994,-0.0004088054
140.4994,-0.0004084984
140.5994,-0.0004081829
140.6994,-0.0004078071
140.7994,-0.0004075246
140.8994,-0.000407243
140.9994,-0.0004069276
141.0994,-0.0004066064
141.1994,-0.0004063013
141.2994,-0.0004059896
141.3994,-0.0004056468
141.4994,-0.0004053379
141.5994,-0.0004050253
141.6994,-0.0004047155
141.7995,-0.0004044536
141.8995,-0.0004040751
141.9995,-0.0004037276
142.0995,-0.0004034893
142.1995,-0.0004031635
142.2995,-0.0004027727
142.3995,-0.0004024788
142.4995,-0.0004021878
142.5995,-0.0004018535
142.6995,-0.0004015767
142.7995,-0.0004012809
142.8995,-0.0004009749
142.9995,-0.0004006132
143.0995,-0.0004003176
143.1995,-0.0004000407
143.2995,-0.0003997186
143.3996,-0.0003994323
143.4996,-0.0003991667
143.5996,-0.000398855
143.6996,-0.0003985914
143.7996,-0.0003982787
143.8996,-0.0003979227
143.9996,-0.0003976214
144.0996,-0.0003973473
144.1996,-0.0003970384
144.2996,-0.0003966749
144.3996,-0.0003964235
144.4996,-0.0003961269
144.5996,-0.0003958406
144.6996,-0.000395526
144.7996,-0.000395203
144.8996,-0.0003949233
144.9996,-0.0003946568
145.0997,-0.0003943366
145.1997,-0.0003940419
145.2997,-0.0003937433
145.3997,-0.0003934345
145.4997,-0.0003931453
145.5997,-0.0003928411
145.6997,-0.0003925191
145.7997,-0.0003922469
145.8997,-0.0003919418
145.9997,-0.0003916179
146.0997,-0.0003913014
146.1997,-0.0003910349
146.2997,-0.0003907251
146.3997,-0.0003903926
146.4997,-0.0003901064
146.5997,-0.0003898775
146.6998,-0.0003894933
146.7998,-0.0003891797
146.8998,-0.000388867
146.9998,-0.0003885817
147.0998,-0.0003883161
147.1998,-0.0003879874
147.2998,-0.0003876682
147.3998,-0.0003873725
147.4998,-0.0003870589
147.5998,-0.0003867538
147.6998,-0.0003864355
147.7998,-0.0003861407
147.8998,-0.0003858347
147.9998,-0.0003855653
148.0998,-0.0003852922
148.1998,-0.0003849532
148.2999,-0.0003846641
148.3999,-0.000384391
148.4999,-0.0003840906
148.5999,-0.0003838212
148.6999,-0.0003835124
148.7999,-0.0003831582
148.8999,-0.0003828955
148.9999,-0.0003826478
149.0999,-0.000382338
149.1999,-0.0003820131
149.2999,-0.0003817626
149.3999,-0.0003814641
149.4999,-0.000381127
149.5999,-0.0003808209
149.6999,-0.0003805487
149.7999,-0.0003802493
149.8999,-0.0003799799
150,-0.0003796927
150.1,-0.0003793857
150.2,-0.0003791681
150.3,-0.0003789073
150.4,-0.0003785588
150.5,-0.000378249
150.6,-0.0003779966
150.7,-0.000377683
150.8,-0.0003774071
150.9,-0.0003771566
151,-0.0003768496
151.1,-0.0003765812
151.2,-0.0003763486
151.3,-0.0003760407
151.4,-0.000375777
151.5,-0.0003754898
151.6001,-0.0003752025
151.7001,-0.0003749633
151.8001,-0.0003746648
151.9001,-0.0003744105
152.0001,-0.0003741336
152.1001,-0.0003738549
152.2001,-0.0003735969
152.3001,-0.0003733012
152.4001,-0.0003730309
152.5001,-0.0003727634
152.6001,-0.0003724734
152.7001,-0.0003722153
152.8001,-0.0003719272
152.9001,-0.0003716333
153.0001,-0.0003713669
153.1001,-0.0003711013
153.2001,-0.0003708103
153.3002,-0.0003705504
153.4002,-0.0003702594
153.5002,-0.0003699251
153.6002,-0.0003696406
153.7002,-0.0003693826
153.8002,-0.0003691095
153.9002,-0.0003688129
154.0002,-0.0003685586
154.1002,-0.0003682158
154.2002,-0.0003679729
154.3002,-0.0003677148
154.4002,-0.0003673824
154.5002,-0.0003670952
154.6002,-0.0003668512
154.7002,-0.0003665659
154.8002,-0.0003662636
154.9003,-0.0003659839
155.0003,-0.0003657127
155.1003,-0.0003654245
155.2003,-0.0003651656
155.3003,-0.0003648802
155.4003,-0.0003645789
155.5003,-0.0003642972
155.6003,-0.0003640458
155.7003,-0.0003637671
155.8003,-0.0003635081
155.9003,-0.0003632199
156.0003,-0.0003629026
156.1003,-0.0003626304
156.2003,-0.0003623686
156.3003,-0.0003620879
156.4003,-0.0003618045
156.5004,-0.0003615003
156.6004,-0.0003612329
156.7004,-0.0003609814
156.8004,-0.0003607121
156.9004,-0.0003604154
157.0004,-0.0003601923
157.1004,-0.0003599126
157.2004,-0.0003596103
157.3004,-0.0003593315
157.4004,-0.0003590904
157.5004,-0.0003587872
157.6004,-0.0003585179
157.7004,-0.0003582598
157.8004,-0.0003579566
157.9004,-0.0003577174
158.0004,-0.0003575046
158.1004,-0.0003572249
158.2005,-0.0003569113
158.3005,-0.0003566382
158.4005,-0.0003563697
158.5005,-0.0003560825
158.6005,-0.0003558076
158.7005,-0.0003555345
158.8005,-0.0003552783
158.9005,-0.0003550287
159.0005,-0.0003547189
159.1005,-0.0003544355
159.2005,-0.0003542208
159.3005,-0.000353925
159.4005,-0.0003536294
159.5005,-0.0003534457
159.6005,-0.0003531462
159.7005,-0.0003528157
159.8006,-0.0003525963
159.9006,-0.0003523401
160.0006,-0.000352067
160.1006,-0.0003517986
160.2006,-0.0003515274
160.3006,-0.0003512543
160.4006,-0.000351016
160.5006,-0.000350742
160.6006,-0.000350515
160.7006,-0.0003502401
160.8006,-0.0003500319
160.9006,-0.0003497739
161.0006,-0.0003494829
161.1006,-0.000349239
161.2006,-0.0003489838
161.3006,-0.0003487116
161.4007,-0.0003484639
161.5007,-0.0003482191
161.6007,-0.0003479686
161.7007,-0.0003477162
161.8007,-0.0003474751
161.9007,-0.000347219
162.0007,-0.0003469572
162.1007,-0.0003467265
162.2007,-0.0003464694
162.3007,-0.0003462311
162.4007,-0.0003459853
162.5007,-0.0003457235
162.6007,-0.0003454645
162.7007,-0.0003451933
162.8007,-0.0003449748
162.9007,-0.0003447243
163.0007,-0.0003444522
163.1008,-0.000344197
163.2008,-0.0003439512
163.3008,-0.000343743
163.4008,-0.0003434765
163.5008,-0.0003431695
163.6008,-0.0003429623
163.7008,-0.000342709
163.8008,-0.0003424227
163.9008,-0.0003421741
164.0008,-0.0003419519
164.1008,-0.0003416722
164.2008,-0.0003414443
164.3008,-0.0003411975
164.4008,-0.0003409178
164.5008,-0.0003406692
164.6008,-0.0003404046
164.7009,-0.0003401287
164.8009,-0.0003398914
164.9009,-0.0003396408
165.0009,-0.0003393602
165.1009,-0.0003391135
165.2009,-0.0003388978
165.3009,-0.0003386332
165.4009,-0.0003383714
165.5009,-0.0003381284
165.6009,-0.0003378497
165.7009,-0.0003375973
165.8009,-0.0003373798
165.9009,-0.0003371377
166.0009,-0.0003368336
166.1009,-0.0003366019
166.2009,-0.0003363674
166.3009,-0.0003361272
166.401,-0.0003358607
166.501,-0.0003355905
166.601,-0.0003353306
166.701,-0.0003351083
166.801,-0.0003348399
166.901,-0.0003345659
167.001,-0.0003343285
167.101,-0.0003340686
167.201,-0.0003338153
167.301,-0.0003335714
167.401,-0.0003333378
167.501,-0.0003330883
167.601,-0.0003328293
167.701,-0.0003325647
167.801,-0.0003323283
167.901,-0.000332058
168.0011,-0.0003317877
168.1011,-0.0003315571
168.2011,-0.0003313545
168.3011,-0.0003311229
168.4011,-0.0003308093
168.5011,-0.0003305353
168.6011,-0.0003302951
168.7011,-0.0003300672
168.8011,-0.0003298007
168.9011,-0.0003295662
169.0011,-0.000329327
169.1011,-0.0003290341
169.2011,-0.0003288166
169.3011,-0.0003286141
169.4011,-0.0003283514
169.5011,-0.000328066
169.6012,-0.0003278504
169.7012,-0.000327613
169.8012,-0.0003273484
169.9012,-0.0003270942
170.0012,-0.0003268286
170.1012,-0.0003266346
170.2012,-0.0003263766
170.3012,-0.0003261242
170.4012,-0.0003258775
170.5012,-0.0003256684
170.6012,-0.0003254123
170.7012,-0.0003251646
170.8012,-0.0003249093
170.9012,-0.0003246542
171.0012,-0.0003244253
171.1012,-0.0003241842
171.2012,-0.0003239026
171.3013,-0.0003236427
171.4013,-0.0003234789
171.5013,-0.0003232095
171.6013,-0.000322944
171.7013,-0.0003227688
171.8013,-0.0003225578
171.9013,-0.0003222339
172.0013,-0.0003220248
172.1013,-0.0003218139
172.2013,-0.0003215464
172.3013,-0.0003213694
172.4013,-0.0003211396
172.5013,-0.0003208599
172.6013,-0.0003206282
172.7013,-0.0003204267
172.8013,-0.0003201894
172.9014,-0.0003199596
173.0014,-0.0003197477
173.1014,-0.0003195358
173.2014,-0.0003192938
173.3014,-0.0003191045
173.4014,-0.0003188521
173.5014,-0.0003186591
173.6014,-0.0003184896
173.7014,-0.0003182343
173.8014,-0.0003179584
173.9014,-0.0003177475
174.0014,-0.0003175469
174.1014,-0.0003173199
174.2014,-0.0003170958
174.3014,-0.0003168858
174.4014,-0.000316656
174.5014,-0.0003164441
174.6015,-0.0003162369
174.7015,-0.0003160062
174.8015,-0.0003157802
174.9015,-0.0003155655
175.0015,-0.0003153348
175.1015,-0.0003151464
175.2015,-0.0003149072
175.3015,-0.0003146699
175.4015,-0.0003144514
175.5015,-0.0003142612
175.6015,-0.000314022
175.7015,-0.0003137903
175.8015,-0.0003135653
175.9015,-0.0003132922
176.0015,-0.0003130897
176.1015,-0.0003128646
176.2016,-0.0003126367
176.3016,-0.0003123777
176.4016,-0.000312163
176.5016,-0.0003119483
176.6016,-0.0003117374
176.7016,-0.0003115132
176.8016,-0.0003112222
176.9016,-0.0003110028
177.0016,-0.0003108192
177.1016,-0.0003105687
177.2016,-0.000310289
177.3016,-0.0003100855
177.4016,-0.0003098614
177.5016,-0.0003096091
177.6016,-0.0003094009
177.7016,-0.0003091928
177.8017,-0.0003089141
177.9017,-0.0003086965
178.0017,-0.0003084808
178.1017,-0.0003082247
178.2017,-0.00030801
178.3017,-0.0003077661
178.4017,-0.0003075165
178.5017,-0.0003073075
178.6017,-0.0003070842
178.7017,-0.0003068008
178.8017,-0.0003066444
178.9017,-0.0003064514
179.0017,-0.0003061944
179.1017,-0.0003059222
179.2017,-0.0003057216
179.3017,-0.0003054522
179.4017,-0.0003052413
179.5018,-0.0003050209
179.6018,-0.0003048024
179.7018,-0.0003046075
179.8018,-0.0003043787
179.9018,-0.0003041696
180.0018,-0.0003039314
180.1018,-0.0003037534
180.2018,-0.0003035273
180.3018,-0.0003033032
180.4018,-0.0003030725
180.5018,-0.0003028879
180.6018,-0.0003025912
180.7018,-0.0003023869
180.8018,-0.0003022268
180.9018,-0.0003019782
181.0018,-0.000301724
181.1019,-0.0003015911
181.2019,-0.000301399
181.3019,-0.0003011429
181.4019,-0.000300931
181.5019,-0.0003007389
181.6019,-0.0003005185
181.7019,-0.00030035
181.8019,-0.0003001286
181.9019,-0.0002998866
182.0019,-0.0002996794
182.1019,-0.0002995024
182.2019,-0.0002992783
182.3019,-0.0002990645
182.4019,-0.0002988338
182.5019,-0.0002985974
182.6019,-0.0002984175
182.702,-0.0002982178
182.802,-0.0002979692
182.902,-0.0002977376
183.002,-0.0002975568
183.102,-0.000297326
183.202,-0.0002971141
183.302,-0.0002969277
183.402,-0.0002966649
183.502,-0.0002964869
183.602,-0.000296276
183.702,-0.0002960444
183.802,-0.0002958466
183.902,-0.0002956677
184.002,-0.0002954595
184.102,-0.0002952005
184.202,-0.0002950207
184.302,-0.0002947692
184.4021,-0.0002945432
184.5021,-0.000294337
184.6021,-0.0002941543
184.7021,-0.0002938577
184.8021,-0.0002936467
184.9021,-0.000293464
185.0021,-0.0002932229
185.1021,-0.0002930336
185.2021,-0.0002927869
185.3021,-0.0002925411
185.4021,-0.0002923622
185.5021,-0.0002921239
185.6021,-0.0002918753
185.7021,-0.0002916992
185.8021,-0.0002914939
185.9021,-0.0002912603
186.0022,-0.0002910767
186.1022,-0.0002908582
186.2022,-0.0002906068
186.3022,-0.0002903968
186.4022,-0.0002902565
186.5022,-0.0002900267
186.6022,-0.0002898016
186.7022,-0.0002896085
186.8022,-0.0002894004
186.9022,-0.0002891716
187.0022,-0.0002889898
187.1022,-0.0002888109
187.2022,-0.000288534
187.3022,-0.0002883287
187.4022,-0.000288146
187.5022,-0.0002879153
187.6022,-0.0002877449
187.7023,-0.0002875151
187.8023,-0.0002872683
187.9023,-0.0002870772
188.0023,-0.0002868954
188.1023,-0.0002866779
188.2023,-0.0002864415
188.3023,-0.0002862419
188.4023,-0.0002860535
188.5023,-0.0002858425
188.6023,-0.0002856175
188.7023,-0.0002854423
188.8023,-0.0002852427
188.9023,-0.0002850619
189.0023,-0.0002848566
189.1023,-0.0002846334
189.2023,-0.000284511
189.3024,-0.0002843301
189.4024,-0.0002840844
189.5024,-0.0002838856
189.6024,-0.0002837162
189.7024,-0.000283509
189.8024,-0.000283315
189.9024,-0.0002831125
190.0024,-0.0002828799
190.1024,-0.0002827179
190.2024,-0.0002825361
190.3024,-0.0002822838
190.4024,-0.000282119
190.5024,-0.0002819457
190.6024,-0.0002817103
190.7024,-0.0002815294
190.8024,-0.000281311
190.9025,-0.0002811103
191.0025,-0.0002809277
191.1025,-0.0002807149
191.2025,-0.0002804747
191.3025,-0.0002802704
191.4025,-0.0002801253
191.5025,-0.0002799266
191.6025,-0.0002797053
191.7025,-0.0002794915
191.8025,-0.0002793295
191.9025,-0.0002791102
192.0025,-0.0002788945
192.1025,-0.0002787071
192.2025,-0.0002784905
192.3025,-0.0002783049
192.4025,-0.0002781128
192.5025,-0.0002778953
192.6026,-0.0002776881
192.7026,-0.0002775167
192.8026,-0.0002773236
192.9026,-0.0002771268
193.0026,-0.0002769441
193.1026,-0.0002767069
193.2026,-0.0002765176
193.3026,-0.0002763282
193.4026,-0.0002761145
193.5026,-0.0002758697
193.6026,-0.0002757199
193.7026,-0.0002755212
193.8026,-0.0002752603
193.9026,-0.0002750503
194.0026,-0.0002748676
194.1026,-0.0002746633
194.2027,-0.0002744608
194.3027,-0.0002742357
194.4027,-0.0002740116
194.5027,-0.0002738204
194.6027,-0.0002736198
194.7027,-0.0002734324
194.8027,-0.0002732497
194.9027,-0.0002729992
195.0027,-0.0002727958
195.1027,-0.0002726009
195.2027,-0.0002723918
195.3027,-0.0002721922
195.4027,-0.000272017
195.5027,-0.0002718192
195.6027,-0.0002715781
195.7027,-0.0002714058
195.8027,-0.0002712231
195.9028,-0.0002709811
196.0028,-0.0002707786
196.1028,-0.0002706091
196.2028,-0.0002704132
196.3028,-0.0002701825
196.4028,-0.0002700177
196.5028,-0.0002698265
196.6028,-0.0002695968
196.7028,-0.0002694659
196.8028,-0.0002692926
196.9028,-0.0002690609
197.0028,-0.0002688565
197.1028,-0.0002686852
197.2028,-0.0002685383
197.3028,-0.0002683584
197.4028,-0.0002681239
197.5029,-0.000267928
197.6029,-0.0002677425
197.7029,-0.000267523
197.8029,-0.0002673272
197.9029,-0.0002672066
198.0029,-0.0002670296
198.1029,-0.0002668469
198.2029,-0.0002667019
198.3029,-0.0002664994
198.4029,-0.0002663535
198.5029,-0.0002661519
198.6029,-0.0002659852
198.7029,-0.0002658082
198.8029,-0.0002656189
198.9029,-0.0002654578
199.0029,-0.000265294
199.103,-0.0002651
199.203,-0.0002649295
199.303,-0.0002647628
199.403,-0.000264567
199.503,-0.0002643918
199.603,-0.0002642496
199.703,-0.0002640302
199.803,-0.0002638362
199.903,-0.0002636949
200.003,-0.0002635019
200.103,-0.0002633258
200.203,-0.0002631864
200.303,-0.0002629396
200.403,-0.0002627692
200.503,-0.0002625912
200.603,-0.0002623916
200.703,-0.0002621863
200.8031,-0.0002620036
200.9031,-0.0002617955
201.0031,-0.0002616024
201.1031,-0.0002614555
201.2031,-0.000261253
201.3031,-0.0002610308
201.4031,-0.000260897
201.5031,-0.0002607096
201.6031,-0.0002604412
201.7031,-0.0002602859
201.8031,-0.000260106
201.9031,-0.0002598678
202.0031,-0.0002596389
202.1031,-0.000259508
202.2031,-0.00025933
202.3031,-0.0002591021
202.4032,-0.0002589006
202.5032,-0.0002587065
202.6032,-0.0002585126
202.7032,-0.0002583195
202.8032,-0.0002581359
202.9032,-0.0002579626
203.0032,-0.0002577347
203.1032,-0.0002575652
203.2032,-0.000257375
203.3032,-0.0002572007
203.4032,-0.0002569954
203.5032,-0.0002568052
203.6032,-0.0002566282
203.7032,-0.0002564398
203.8032,-0.0002562345
203.9032,-0.0002560396
204.0033,-0.0002558569
204.1033,-0.0002556704
204.2033,-0.0002555395
204.3033,-0.0002553399
204.4033,-0.0002551186
204.5033,-0.000254934
204.6033,-0.0002547588
204.7033,-0.0002545366
204.8033,-0.0002543935
204.9033,-0.0002541966
205.0033,-0.0002539847
205.1033,-0.0002538077
205.2033,-0.0002536504
205.3033,-0.0002534329
205.4033,-0.0002532361
205.5033,-0.0002531042
205.6033,-0.000252898
205.7034,-0.0002527473
205.8034,-0.000252575
205.9034,-0.0002523461
206.0034,-0.0002521889
206.1034,-0.0002520664
206.2034,-0.0002518753
206.3034,-0.0002516587
206.4034,-0.0002514515
206.5034,-0.0002512952
206.6034,-0.0002511021
206.7034,-0.0002509109
206.8034,-0.0002507235
206.9034,-0.0002505295
207.0034,-0.0002503468
207.1034,-0.0002501924
207.2034,-0.0002499908
207.3035,-0.0002498232
207.4035,-0.0002496019
207.5035,-0.0002494136
207.6035,-0.0002492403
207.7035,-0.0002490887
207.8035,-0.0002488551
207.9035,-0.0002486621
208.0035,-0.0002485227
208.1035,-0.0002483353
208.2035,-0.0002481413
208.3035,-0.000247952
208.4035,-0.0002477608
208.5035,-0.0002476158
208.6035,-0.0002474633
208.7035,-0.0002472448
208.8035,-0.000247047
208.9035,-0.0002468954
209.0036,-0.0002467296
209.1036,-0.0002465253
209.2036,-0.000246369
209.3036,-0.0002461533
209.4036,-0.0002459715
209.5036,-0.0002458237
209.6036,-0.000245577
209.7036,-0.0002454112
209.8036,-0.0002453086
209.9036,-0.0002450882
210.0036,-0.0002448678
210.1036,-0.0002447153
210.2036,-0.0002445721
210.3036,-0.0002444017
210.4036,-0.000244234
210.5036,-0.0002440777
210.6037,-0.0002438696
210.7037,-0.0002437396
210.8037,-0.0002435673
210.9037,-0.0002434063
211.0037,-0.0002432245
211.1037,-0.0002430757
211.2037,-0.0002428874
211.3037,-0.0002426924
211.4037,-0.0002425399
211.5037,-0.0002423911
211.6037,-0.0002422093
211.7037,-0.000242054
211.8037,-0.0002419061
211.9037,-0.0002417648
212.0037,-0.000241601
212.1037,-0.0002413853
212.2038,-0.0002412196
212.3038,-0.0002410915
212.4038,-0.0002408937
212.5038,-0.0002406941
212.6038,-0.0002405594
212.7038,-0.0002404135
212.8038,-0.0002402138
212.9038,-0.0002400509
213.0038,-0.0002399077
213.1038,-0.0002396949
213.2038,-0.0002395565
213.3038,-0.0002393954
213.4038,-0.0002391901
213.5038,-0.0002390498
213.6038,-0.0002389001
213.7038,-0.0002386797
213.8038,-0.0002385112
213.9039,-0.0002384151
214.0039,-0.0002381844
214.1039,-0.0002379762
214.2039,-0.0002378501
214.3039,-0.0002376843
214.4039,-0.0002374903
214.5039,-0.0002373349
214.6039,-0.0002371504
214.7039,-0.000236978
214.8039,-0.0002368546
214.9039,-0.0002366597
215.0039,-0.0002364789
215.1039,-0.0002363066
215.2039,-0.0002361804
215.3039,-0.0002359647
215.4039,-0.000235799
215.504,-0.0002356539
215.604,-0.0002354496
215.704,-0.000235298
215.804,-0.0002351784
215.904,-0.0002350089
216.004,-0.000234813
216.104,-0.0002346613
216.204,-0.0002344909
216.304,-0.0002343016
216.404,-0.0002341726
216.504,-0.0002340144
216.604,-0.0002338308
216.704,-0.0002337008
216.804,-0.0002335388
216.904,-0.0002333608
217.004,-0.0002332356
217.104,-0.0002331
217.2041,-0.0002329116
217.3041,-0.0002327477
217.4041,-0.0002326018
217.5041,-0.0002324351
217.6041,-0.0002322882
217.7041,-0.0002321403
217.8041,-0.0002319407
217.9041,-0.0002317825
218.0041,-0.0002316629
218.1041,-0.0002314774
218.2041,-0.0002313248
218.3041,-0.000231176
218.4041,-0.0002309999
218.5041,-0.0002308662
218.6041,-0.0002307287
218.7041,-0.0002305516
218.8042,-0.0002304057
218.9042,-0.0002302465
219.0042,-0.0002300704
219.1042,-0.0002299292
219.2042,-0.0002297653
219.3042,-0.0002295788
219.4042,-0.0002294357
219.5042,-0.0002292963
219.6042,-0.0002291315
219.7042,-0.0002289554
219.8042,-0.0002288104
219.9042,-0.0002286531
220.0042,-0.000228509
220.1042,-0.0002283762
220.2042,-0.0002281907
220.3042,-0.0002280146
220.4043,-0.0002278705
220.5043,-0.0002277349
220.6043,-0.0002275475
220.7043,-0.0002273629
220.8043,-0.0002272245
220.9043,-0.0002270446
221.0043,-0.0002269137
221.1043,-0.0002267734
221.2043,-0.0002265747
221.3043,-0.0002264127
221.4043,-0.0002262611
221.5043,-0.0002260784
221.6043,-0.0002259249
221.7043,-0.0002257987
221.8043,-0.000225617
221.9043,-0.0002254814
222.0043,-0.0002253166
222.1044,-0.0002251367
222.2044,-0.0002249747
222.3044,-0.0002248297
222.4044,-0.0002246385
222.5044,-0.0002244473
222.6044,-0.0002243183
222.7044,-0.0002241601
222.8044,-0.0002239915
222.9044,-0.0002238333
223.0044,-0.0002236431
223.1044,-0.0002234811
223.2044,-0.0002233502
223.3044,-0.0002231967
223.4044,-0.0002230215
223.5044,-0.0002228436
223.6044,-0.000222691
223.7045,-0.0002225479
223.8045,-0.0002224245
223.9045,-0.0002222333
224.0045,-0.0002220629
224.1045,-0.0002219141
224.2045,-0.00022177
224.3045,-0.0002216005
224.4045,-0.0002214602
224.5045,-0.0002212916
224.6045,-0.0002210929
224.7045,-0.0002209422
224.8045,-0.0002208075
224.9045,-0.0002206474
225.0045,-0.000220493
225.1045,-0.000220347
225.2045,-0.0002201634
225.3046,-0.0002200589
225.4046,-0.0002199063
225.5046,-0.0002196944
225.6046,-0.0002195259
225.7046,-0.0002193978
225.8046,-0.0002192631
225.9046,-0.0002190814
226.0046,-0.0002189203
226.1046,-0.0002187706
226.2046,-0.0002186029
226.3046,-0.0002184965
226.4046,-0.0002183176
226.5046,-0.0002181415
226.6046,-0.0002180144
226.7046,-0.0002178854
226.8046,-0.0002177055
226.9046,-0.0002175529
227.0047,-0.0002174248
227.1047,-0.0002172657
227.2047,-0.0002171244
227.3047,-0.000216953
227.4047,-0.0002167816
227.5047,-0.0002166272
227.6047,-0.0002164897
227.7047,-0.0002163287
227.8047,-0.0002161902
227.9047,-0.000216
228.0047,-0.0002158701
228.1047,-0.0002156892
228.2047,-0.0002155499
228.3047,-0.0002153916
228.4047,-0.0002152692
228.5047,-0.0002151242
228.6048,-0.0002149688
228.7048,-0.0002148247
228.8048,-0.0002147145
228.9048,-0.000214529
229.0048,-0.0002143896
229.1048,-0.0002142635
229.2048,-0.0002140808
229.3048,-0.0002139583
229.4048,-0.0002138105
229.5048,-0.0002136485
229.6048,-0.0002135044
229.7048,-0.0002133707
229.8048,-0.0002131984
229.9048,-0.0002130477
230.0048,-0.0002129187
230.1048,-0.0002127595
230.2048,-0.0002125966
230.3049,-0.0002124619
230.4049,-0.0002123273
230.5049,-0.0002121408
230.6049,-0.0002120306
230.7049,-0.0002118771
230.8049,-0.0002117245
230.9049,-0.0002116012
231.0049,-0.0002114486
231.1049,-0.0002112866
231.2049,-0.000211151
231.3049,-0.0002110361
231.4049,-0.0002108534
231.5049,-0.0002107225
231.6049,-0.0002105681
231.7049,-0.0002104372
231.8049,-0.0002102988
231.905,-0.0002101396
232.005,-0.0002099757
232.105,-0.0002098458
232.205,-0.000209713
232.305,-0.0002095482
232.405,-0.000209423
232.505,-0.0002092836
232.605,-0.0002091367
232.705,-0.0002089992
232.805,-0.0002088466
232.905,-0.0002087082
233.005,-0.0002085735
233.105,-0.0002084389
233.205,-0.0002082929
233.305,-0.0002081535
233.405,-0.0002080433
233.5051,-0.0002078992
233.6051,-0.0002077373
233.7051,-0.0002075894
233.8051,-0.000207466
233.9051,-0.0002073398
234.0051,-0.0002071854
234.1051,-0.0002070366
234.2051,-0.0002068925
234.3051,-0.0002067739
234.4051,-0.0002066486
234.5051,-0.0002064895
234.6051,-0.0002063482
234.7051,-0.0002062107
234.8051,-0.0002061043
234.9051,-0.0002059762
235.0051,-0.0002058124
235.1051,-0.000205656
235.2052,-0.0002055298
235.3052,-0.0002053999
235.4052,-0.000205269
235.5052,-0.0002051221
235.6052,-0.0002050109
235.7052,-0.0002048857
235.8052,-0.000204736
235.9052,-0.0002046173
236.0052,-0.0002044685
236.1052,-0.0002043301
236.2052,-0.0002042265
236.3052,-0.000204089
236.4052,-0.0002039505
236.5052,-0.0002038517
236.6052,-0.0002037321
236.7052,-0.0002036059
236.8053,-0.0002034797
236.9053,-0.0002033365
237.0053,-0.000203183
237.1053,-0.000203087
237.2053,-0.0002029438
237.3053,-0.0002027951
237.4053,-0.0002026736
237.5053,-0.0002025596
237.6053,-0.0002024268
237.7053,-0.0002022846
237.8053,-0.0002021095
237.9053,-0.0002019738
238.0053,-0.0002018835
238.1053,-0.0002017488
238.2053,-0.0002015896
238.3053,-0.0002014691
238.4053,-0.0002013589
238.5054,-0.0002012403
238.6054,-0.0002011131
238.7054,-0.0002009596
238.8054,-0.0002008268
238.9054,-0.0002006799
239.0054,-0.0002005613
239.1054,-0.0002004106
239.2054,-0.0002002712
239.3054,-0.0002001403
239.4054,-0.0002000056
239.5054,-0.000199855
239.6054,-0.0001997627
239.7054,-0.0001995781
239.8054,-0.0001994557
239.9054,-0.0001993332
240.0054,-0.0001991807
240.1055,-0.000199078
240.2055,-0.0001989396
240.3055,-0.0001988181
240.4055,-0.000198675
240.5055,-0.0001985384
240.6055,-0.0001984235
240.7055,-0.0001982804
240.8055,-0.0001981476
240.9055,-0.0001980129
241.0055,-0.0001978698
241.1055,-0.0001977624
241.2055,-0.0001975854
241.3055,-0.0001974582
241.4055,-0.000197333
241.5055,-0.000197203
241.6055,-0.0001970326
241.7056,-0.0001969026
241.8056,-0.0001968047
241.9056,-0.000196639
242.0056,-0.0001965165
242.1056,-0.0001963753
242.2056,-0.0001962472
242.3056,-0.0001961154
242.4056,-0.0001959779
242.5056,-0.000195814
242.6056,-0.0001957283
242.7056,-0.0001955852
242.8056,-0.0001954081
242.9056,-0.0001953262
243.0056,-0.0001952273
243.1056,-0.0001950145
243.2056,-0.0001948666
243.3056,-0.00019478
243.4057,-0.0001946236
243.5057,-0.000194488
243.6057,-0.0001943543
243.7057,-0.0001942065
243.8057,-0.0001940652
243.9057,-0.0001939484
244.0057,-0.0001938373
244.1057,-0.0001936951
244.2057,-0.0001935699
244.3057,-0.0001934446
244.4057,-0.0001932817
244.5057,-0.0001931442
244.6057,-0.0001930434
244.7057,-0.0001929106
244.8057,-0.0001927694
244.9057,-0.0001926667
245.0058,-0.0001925339
245.1058,-0.0001923805
245.2058,-0.0001922787
245.3058,-0.0001921384
245.4058,-0.0001920113
245.5058,-0.0001919002
245.6058,-0.0001917466
245.7058,-0.0001916101
245.8058,-0.0001915282
245.9058,-0.0001914321
246.0058,-0.0001912569
246.1058,-0.000191095
246.2058,-0.0001910017
246.3058,-0.0001908558
246.4058,-0.0001907051
246.5058,-0.0001906194
246.6059,-0.000190464
246.7059,-0.0001903425
246.8059,-0.0001902371
246.9059,-0.0001901014
247.0059,-0.0001899724
247.1059,-0.0001898576
247.2059,-0.00018972
247.3059,-0.0001895722
247.4059,-0.0001894988
247.5059,-0.000189333
247.6059,-0.000189188
247.7059,-0.0001890797
247.8059,-0.0001889554
247.9059,-0.0001888264
248.0059,-0.0001887275
248.1059,-0.0001885542
248.2059,-0.0001884581
248.306,-0.0001883781
248.406,-0.0001882312
248.506,-0.0001880777
248.606,-0.0001879647
248.706,-0.0001878714
248.806,-0.0001877405
248.906,-0.0001875955
249.006,-0.0001874976
249.106,-0.0001873855
249.206,-0.0001872894
249.306,-0.0001871576
249.406,-0.0001870361
249.506,-0.0001868666
249.606,-0.0001867837
249.706,-0.000186666
249.806,-0.0001864965
249.9061,-0.0001863976
250.0061,-0.000186278
250.1061,-0.0001861839
250.2061,-0.0001860605
250.3061,-0.0001859173
250.4061,-0.0001859013
250.5061,-0.000185777
250.6061,-0.0001855595
250.7061,-0.0001854615
250.8061,-0.0001853711
250.9061,-0.0001851922
251.0061,-0.000185083
251.1061,-0.000184985
251.2061,-0.0001848786
251.3061,-0.0001847223
251.4061,-0.0001846112
251.5061,-0.0001844981
251.6062,-0.0001843898
251.7062,-0.0001842486
251.8062,-0.0001841469
251.9062,-0.0001840395
252.0062,-0.0001839209
252.1062,-0.0001837994
252.2062,-0.0001836515
252.3062,-0.0001835696
252.4062,-0.0001834651
252.5062,-0.0001833163
252.6062,-0.0001831703
252.7062,-0.0001831138
252.8062,-0.000182998
252.9062,-0.0001828576
253.0062,-0.000182723
253.1062,-0.0001826166
253.2063,-0.0001824772
253.3063,-0.0001824037
253.4063,-0.0001822766
253.5063,-0.0001821419
253.6063,-0.0001820299
253.7063,-0.00018193
253.8063,-0.0001817624
253.9063,-0.000181657
254.0063,-0.0001815552
254.1063,-0.0001814319
254.2063,-0.0001812868
254.3063,-0.0001811936
254.4063,-0.0001810674
254.5063,-0.0001809751
254.6063,-0.0001808395
254.7063,-0.0001806964
254.8064,-0.0001805805
254.9064,-0.0001804713
255.0064,-0.0001803395
255.1064,-0.0001802349
255.2064,-0.0001801389
255.3064,-0.0001799609
255.4064,-0.0001798592
255.5064,-0.0001797914
255.6064,-0.0001796576
255.7064,-0.0001795089
255.8064,-0.0001794307
255.9064,-0.0001793177
256.0064,-0.0001791698
256.1064,-0.0001790851
256.2064,-0.0001789485
256.3064,-0.0001788157
256.4064,-0.0001787206
256.5064,-0.0001785794
256.6064,-0.0001784278
256.7065,-0.0001783383
256.8065,-0.0001782064
256.9065,-0.0001780454
257.0065,-0.0001779785
257.1065,-0.0001778458
257.2065,-0.0001777064
257.3065,-0.0001775981
257.4065,-0.0001774964
257.5065,-0.0001773636
257.6065,-0.0001772534
257.7065,-0.0001771291
257.8065,-0.0001769907
257.9065,-0.0001769068
258.0065,-0.0001768117
258.1065,-0.0001766705
258.2065,-0.0001765697
258.3065,-0.0001764944
258.4066,-0.0001763983
258.5066,-0.0001762448
258.6066,-0.0001761111
258.7066,-0.0001760442
258.8066,-0.0001758615
258.9066,-0.0001757466
259.0066,-0.0001756393
259.1066,-0.0001754679
259.2066,-0.0001753841
259.3066,-0.0001752984
259.4066,-0.0001751289
259.5066,-0.0001750055
259.6066,-0.0001749236
259.7066,-0.0001747917
259.8066,-0.000174691
259.9066,-0.0001745902
260.0067,-0.0001744753
260.1067,-0.0001743585
260.2067,-0.0001742399
260.3067,-0.0001741448
260.4067,-0.0001740318
260.5067,-0.0001739197
260.6067,-0.0001737822
260.7067,-0.0001736607
260.8067,-0.0001735825
260.9067,-0.0001734272
261.0067,-0.0001733038
261.1067,-0.0001732557
261.2067,-0.0001731437
261.3067,-0.0001729695
261.4067,-0.0001728471
261.5067,-0.0001727774
261.6068,-0.0001726333
261.7068,-0.0001725532
261.8068,-0.0001724233
261.9068,-0.0001722839
262.0068,-0.0001722001
262.1068,-0.0001721059
262.2068,-0.000171943
262.3068,-0.0001718639
262.4068,-0.000171798
262.5068,-0.0001716482
262.6068,-0.0001715164
262.7068,-0.000171441
262.8068,-0.0001713186
262.9068,-0.0001712254
263.0068,-0.0001711256
263.1068,-0.0001709626
263.2068,-0.0001708835
263.3069,-0.0001707724
263.4069,-0.0001706067
263.5069,-0.0001705351
263.6069,-0.0001704315
263.7069,-0.0001702799
263.8069,-0.0001701405
263.9069,-0.0001700407
264.0069,-0.0001699371
264.1069,-0.0001698184
264.2069,-0.000169745
264.3069,-0.0001696113
264.4069,-0.0001694785
264.5069,-0.0001694144
264.6069,-0.0001693222
264.7069,-0.0001692063
264.8069,-0.0001690877
264.907,-0.0001689794
265.007,-0.0001688739
265.107,-0.0001687731
265.207,-0.0001686695
265.307,-0.0001685537
265.407,-0.0001684397
265.507,-0.0001683475
265.607,-0.0001682203
265.707,-0.0001681299
265.807,-0.0001680216
265.907,-0.0001678691
266.007,-0.000167821
266.107,-0.0001677118
266.207,-0.0001675404
266.307,-0.0001674311
266.407,-0.0001673163
266.507,-0.0001671919
266.6071,-0.000167062
266.7071,-0.0001669782
266.8071,-0.0001668407
266.9071,-0.0001667164
267.0071,-0.0001666222
267.1071,-0.0001665497
267.2071,-0.000166399
267.3071,-0.0001662926
267.4071,-0.000166206
267.5071,-0.0001660977
267.6071,-0.0001659922
267.7071,-0.0001659009
267.8071,-0.0001657756
267.9071,-0.0001656673
268.0071,-0.0001655901
268.1071,-0.0001654497
268.2072,-0.0001653509
268.3072,-0.0001652501
268.4072,-0.0001651371
268.5072,-0.0001650269
268.6072,-0.0001649224
268.7072,-0.0001648188
268.8072,-0.0001647265
268.9072,-0.0001646182
269.0072,-0.0001645155
269.1072,-0.0001643875
269.2072,-0.0001643008
269.3072,-0.000164201
269.4072,-0.0001640739
269.5072,-0.0001639882
269.6072,-0.0001638884
269.7072,-0.0001637669
269.8073,-0.0001636586
269.9073,-0.0001635578
270.0073,-0.000163441
270.1073,-0.0001633535
270.2073,-0.0001632649
270.3073,-0.0001631369
270.4073,-0.0001630446
270.5073,-0.0001629297
270.6073,-0.0001627978
270.7073,-0.0001627065
270.8073,-0.0001626236
270.9073,-0.0001625153
271.0073,-0.0001623816
271.1073,-0.0001622742
271.2073,-0.0001621763
271.3073,-0.0001620557
271.4073,-0.0001619446
271.5074,-0.000161841
271.6074,-0.0001617431
271.7074,-0.000161631
271.8074,-0.0001614982
271.9074,-0.0001614031
272.0074,-0.000161325
272.1074,-0.0001612176
272.2074,-0.000161099
272.3074,-0.0001609972
272.4074,-0.0001608861
272.5074,-0.0001607929
272.6074,-0.000160694
272.7074,-0.0001605782
272.8074,-0.000160451
272.9074,-0.0001603861
273.0074,-0.0001602759
273.1075,-0.0001601704
273.2075,-0.0001600499
273.3075,-0.0001599548
273.4075,-0.0001598323
273.5075,-0.0001597626
273.6075,-0.0001596628
273.7075,-0.0001595545
273.8075,-0.0001594246
273.9075,-0.0001593294
274.0075,-0.0001592371
274.1075,-0.0001591599
274.2075,-0.0001590055
274.3075,-0.0001588991
274.4075,-0.0001588105
274.5075,-0.0001587051
274.6075,-0.0001585666
274.7076,-0.0001584894
274.8076,-0.0001583764
274.9076,-0.000158254
275.0076,-0.0001581683
275.1076,-0.0001580656
275.2076,-0.0001579545
275.3076,-0.0001578566
275.4076,-0.0001577878
275.5076,-0.000157655
275.6076,-0.0001575693
275.7076,-0.0001574742
275.8076,-0.0001573725
275.9076,-0.0001572284
276.0076,-0.0001571757
276.1076,-0.0001570759
276.2076,-0.0001569685
276.3076,-0.0001568574
276.4077,-0.0001567416
276.5077,-0.0001566342
276.6077,-0.0001565786
276.7077,-0.0001564506
276.8077,-0.0001562933
276.9077,-0.0001562528
277.0077,-0.0001561614
277.1077,-0.0001560098
277.2077,-0.0001559194
277.3077,-0.0001558384
277.4077,-0.0001557217
277.5077,-0.0001556388
277.6077,-0.0001555258
277.7077,-0.0001554099
277.8077,-0.0001553318
277.9077,-0.0001552527
278.0078,-0.0001551434
278.1078,-0.0001550464
278.2078,-0.0001549466
278.3078,-0.000154843
278.4078,-0.0001547658
278.5078,-0.0001546801
278.6078,-0.0001545341
278.7078,-0.0001544334
278.8078,-0.0001543712
278.9078,-0.0001542883
279.0078,-0.0001541688
279.1078,-0.0001540802
279.2078,-0.0001539521
279.3078,-0.0001538627
279.4078,-0.000153792
279.5078,-0.0001536866
279.6078,-0.0001535839
279.7079,-0.0001534907
279.8079,-0.0001533805
279.9079,-0.0001532797
280.0079,-0.0001532232
280.1079,-0.0001531093
280.2079,-0.0001529756
280.3079,-0.0001529049
280.4079,-0.0001528484
280.5079,-0.0001527034
280.6079,-0.0001525932
280.7079,-0.0001525461
280.8079,-0.0001524303
280.9079,-0.0001523446
281.0079,-0.0001522373
281.1079,-0.0001521553
281.2079,-0.000152063
281.308,-0.000151967
281.408,-0.000151854
281.508,-0.0001517607
281.608,-0.0001516844
281.708,-0.0001515705
281.808,-0.0001514669
281.908,-0.0001513718
282.008,-0.0001512682
282.108,-0.0001511891
282.208,-0.0001511044
282.308,-0.000150964
282.408,-0.0001508962
282.508,-0.000150803
282.608,-0.0001506533
282.708,-0.0001505704
282.808,-0.0001505035
282.9081,-0.0001504122
283.0081,-0.0001503274
283.1081,-0.0001502238
283.2081,-0.0001500958
283.3081,-0.000150012
283.4081,-0.000149962
283.5081,-0.0001498396
283.6081,-0.0001497351
283.7081,-0.0001496456
283.8081,-0.000149543
283.9081,-0.0001494629
284.0081,-0.0001493763
284.1081,-0.0001492529
284.2081,-0.000149138
284.3081,-0.0001490872
284.4081,-0.0001490231
284.5081,-0.0001488922
284.6082,-0.0001488263
284.7082,-0.0001487067
284.8082,-0.0001486266
284.9082,-0.00014854
285.0082,-0.0001484317
285.1082,-0.0001483347
285.2082,-0.0001482886
285.3082,-0.0001481662
285.4082,-0.000148071
285.5082,-0.0001479872
285.6082,-0.0001478893
285.7082,-0.0001477866
285.8082,-0.000147716
285.9082,-0.0001476341
286.0082,-0.0001474975
286.1082,-0.0001474504
286.2083,-0.0001473695
286.3083,-0.0001472696
286.4083,-0.0001471585
286.5083,-0.0001470945
286.6083,-0.0001470257
286.7083,-0.0001469033
286.8083,-0.0001467978
286.9083,-0.0001467253
287.0083,-0.0001465982
287.1083,-0.0001465614
287.2083,-0.0001464711
287.3083,-0.0001463194
287.4083,-0.0001462667
287.5083,-0.0001461895
287.6083,-0.0001460783
287.7083,-0.0001459531
287.8083,-0.0001459003
287.9084,-0.0001458099
288.0084,-0.0001457167
288.1084,-0.0001456112
288.2084,-0.0001455246
288.3084,-0.0001454351
288.4084,-0.0001453636
288.5084,-0.000145259
288.6084,-0.0001451639
288.7084,-0.0001450905
288.8084,-0.0001450274
288.9084,-0.0001449059
289.0084,-0.0001448286
289.1084,-0.0001447477
289.2084,-0.0001446384
289.3084,-0.0001445885
289.4084,-0.0001444783
289.5085,-0.0001443889
289.6085,-0.0001443135
289.7085,-0.0001442278
289.8085,-0.0001441327
289.9085,-0.0001440348
290.0085,-0.0001439387
290.1085,-0.0001438361
290.2085,-0.0001437909
290.3085,-0.0001436694
290.4085,-0.0001435583
290.5085,-0.0001435093
290.6085,-0.0001434236
290.7085,-0.0001432682
290.8085,-0.0001432164
290.9085,-0.0001431514
291.0085,-0.0001430535
291.1086,-0.0001429508
291.2086,-0.0001428604
291.3086,-0.00014277
291.4086,-0.0001426881
291.5086,-0.0001426024
291.6086,-0.000142495
291.7086,-0.000142382
291.8086,-0.0001423397
291.9086,-0.000142238
292.0086,-0.0001421494
292.1086,-0.0001420807
292.2086,-0.0001420101
292.3086,-0.0001418745
292.4086,-0.0001418142
292.5086,-0.0001417671
292.6086,-0.0001416494
292.7086,-0.0001415778
292.8087,-0.0001414883
292.9087,-0.000141381
293.0087,-0.0001412943
293.1087,-0.0001412275
293.2087,-0.0001411239
293.3087,-0.0001410429
293.4087,-0.0001409534
293.5087,-0.0001408611
293.6087,-0.0001407896
293.7087,-0.0001407001
293.8087,-0.0001405777
293.9087,-0.0001404976
294.0087,-0.0001404402
294.1087,-0.0001403611
294.2087,-0.0001402462
294.3087,-0.000140185
294.4088,-0.0001401059
294.5088,-0.0001400155
294.6088,-0.0001399109
294.7088,-0.000139829
294.8088,-0.0001397508
294.9088,-0.0001396812
295.0088,-0.000139586
295.1088,-0.0001394937
295.2088,-0.0001394109
295.3088,-0.0001393487
295.4088,-0.0001392508
295.5088,-0.0001391764
295.6088,-0.0001390935
295.7088,-0.0001390285
295.8088,-0.000138973
295.9088,-0.0001388778
296.0089,-0.0001387564
296.1089,-0.000138681
296.2089,-0.0001386142
296.3089,-0.0001384889
296.4089,-0.0001384089
296.5089,-0.0001383759
296.6089,-0.000138245
296.7089,-0.0001381386
296.8089,-0.0001381113
296.9089,-0.0001380247
297.0089,-0.0001379267
297.1089,-0.0001378306
297.2089,-0.0001377336
297.3089,-0.0001376574
297.4089,-0.0001375952
297.5089,-0.0001375152
297.6089,-0.0001374069
297.709,-0.0001373344
297.809,-0.0001372439
297.909,-0.0001371714
298.009,-0.0001370914
298.109,-0.0001370377
298.209,-0.0001369153
298.309,-0.0001368437
298.409,-0.0001367656
298.509,-0.0001366516
298.609,-0.000136596
298.709,-0.0001365245
298.809,-0.0001364002
298.909,-0.0001363371
299.009,-0.0001362702
299.109,-0.0001361788
299.209,-0.0001360753
299.3091,-0.0001360122
299.4091,-0.0001359274
299.5091,-0.0001358568
299.6091,-0.0001357626
299.7091,-0.0001356713
299.8091,-0.0001355695
299.9091,-0.0001355413
300.0091,-0.0001354274
300.1091,-0.0001353379
300.2091,-0.0001352673
300.3091,-0.0001351787
300.4091,-0.0001350704
300.5091,-0.0001349866
300.6091,-0.0001349471
300.7091,-0.0001348793
300.8091,-0.0001347634
300.9091,-0.0001346796
301.0092,-0.000134593
301.1092,-0.0001345101
301.2092,-0.0001344659
301.3092,-0.0001343632
301.4092,-0.0001342794
301.5092,-0.0001342116
301.6092,-0.0001341193
301.7092,-0.0001340553
301.8092,-0.000133995
301.9092,-0.0001338867
302.0092,-0.0001338189
302.1092,-0.0001337548
302.2092,-0.000133672
302.3092,-0.0001336098
302.4092,-0.000133526
302.5092,-0.0001334055
302.6093,-0.0001333489
302.7093,-0.0001333103
302.8093,-0.0001332058
302.9093,-0.0001330975
303.0093,-0.0001330664
303.1093,-0.0001329789
303.2093,-0.0001328856
303.3093,-0.0001327896
303.4093,-0.0001327105
303.5093,-0.0001326417
303.6093,-0.0001325918
303.7093,-0.0001325014
303.8093,-0.0001323752
303.9093,-0.0001323083
304.0093,-0.0001322415
304.1093,-0.0001321548
304.2094,-0.0001320851
304.3094,-0.0001319929
304.4094,-0.0001319072
304.5094,-0.0001318412
304.6094,-0.0001317612
304.7094,-0.0001316642
304.8094,-0.000131587
304.9094,-0.0001315305
305.0094,-0.0001314457
305.1094,-0.0001313581
305.2094,-0.0001312837
305.3094,-0.0001312084
305.4094,-0.000131117
305.5094,-0.0001310577
305.6094,-0.0001309748
305.7094,-0.0001308901
305.8094,-0.0001308204
305.9095,-0.000130746
306.0095,-0.0001306754
306.1095,-0.0001305831
306.2095,-0.0001305191
306.3095,-0.0001304418
306.4095,-0.0001303712
306.5095,-0.0001303053
306.6095,-0.0001302064
306.7095,-0.0001301584
306.8095,-0.0001300821
306.9095,-0.0001299747
307.0095,-0.0001298975
307.1095,-0.0001298457
307.2095,-0.0001297675
307.3095,-0.0001296837
307.4095,-0.0001296056
307.5096,-0.0001295359
307.6096,-0.000129469
307.7096,-0.0001293814
307.8096,-0.0001292826
307.9096,-0.0001292185
308.0096,-0.0001291761
308.1096,-0.0001290594
308.2096,-0.0001289953
308.3096,-0.0001289209
308.4096,-0.0001288239
308.5096,-0.0001287702
308.6096,-0.000128709
308.7096,-0.0001285857
308.8096,-0.0001285066
308.9096,-0.000128467
309.0096,-0.0001283992
309.1096,-0.00012829
309.2097,-0.0001282344
309.3097,-0.0001281572
309.4097,-0.0001280734
309.5097,-0.0001280376
309.6097,-0.0001279444
309.7097,-0.0001278624
309.8097,-0.0001278201
309.9097,-0.0001277739
310.0097,-0.0001276562
310.1097,-0.0001275978
310.2097,-0.0001275535
310.3097,-0.0001275008
310.4097,-0.0001274283
310.5097,-0.0001273605
310.6097,-0.0001272663
310.7097,-0.0001272107
310.8098,-0.0001271524
310.9098,-0.0001271006
311.0098,-0.0001270054
311.1098,-0.0001269263
311.2098,-0.0001268369
311.3098,-0.0001267926
311.4098,-0.0001267097
311.5098,-0.0001266354
311.6098,-0.0001265497
311.7098,-0.0001264734
311.8098,-0.0001263877
311.9098,-0.0001263246
312.0098,-0.0001262643
312.1098,-0.0001261532
312.2098,-0.0001260835
312.3098,-0.0001260006
312.4099,-0.0001259385
312.5099,-0.0001258707
312.6099,-0.0001258123
312.7099,-0.0001257257
312.8099,-0.0001256155
312.9099,-0.0001255976
313.0099,-0.00012551
313.1099,-0.0001253829
313.2099,-0.0001253527
313.3099,-0.0001253094
313.4099,-0.0001251794
313.5099,-0.0001251116
313.6099,-0.0001250476
313.7099,-0.0001249892
313.8099,-0.0001249148
313.9099,-0.0001248329
314.0099,-0.0001247707
314.11,-0.0001246991
314.21,-0.0001246276
314.31,-0.0001245438
314.41,-0.0001244873
314.51,-0.0001244147
314.61,-0.000124329
314.71,-0.0001242386
314.81,-0.0001241859
314.91,-0.0001241407
315.01,-0.0001240588
315.11,-0.0001239891
315.21,-0.0001238798
315.31,-0.0001238092
315.41,-0.0001237904
315.51,-0.0001236661
315.61,-0.0001235672
315.7101,-0.000123538
315.8101,-0.0001234655
315.9101,-0.0001233826
316.0101,-0.0001232734
316.1101,-0.0001232112
316.2101,-0.0001231547
316.3101,-0.0001231189
316.4101,-0.0001230078
316.5101,-0.0001229287
316.6101,-0.0001228788
316.7101,-0.0001228242
316.8101,-0.0001227319
316.9101,-0.0001226641
317.0101,-0.0001225944
317.1101,-0.0001225124
317.2101,-0.0001224437
317.3102,-0.0001223815
317.4102,-0.0001222949
317.5102,-0.0001222196
317.6102,-0.0001221461
317.7102,-0.0001220717
317.8102,-0.0001220049
317.9102,-0.0001219163
318.0102,-0.0001218457
318.1102,-0.0001217713
318.2102,-0.000121727
318.3102,-0.0001216301
318.4102,-0.0001215575
318.5102,-0.000121486
318.6102,-0.0001214219
318.7102,-0.0001213579
318.8102,-0.0001212694
318.9102,-0.0001211846
319.0103,-0.0001211441
319.1103,-0.0001210876
319.2103,-0.0001209821
319.3103,-0.0001209228
319.4103,-0.0001208607
319.5103,-0.0001208023
319.6103,-0.0001207307
319.7103,-0.0001206478
319.8103,-0.0001205913
319.9103,-0.0001205273
320.0103,-0.0001204623
320.1103,-0.0001203973
320.2103,-0.0001203342
320.3103,-0.0001202787
320.4103,-0.0001202269
320.5103,-0.0001201421
320.6104,-0.0001200517
320.7104,-0.0001200329
320.8104,-0.0001199594
320.9104,-0.0001198737
321.0104,-0.000119805
321.1104,-0.0001197494
321.2104,-0.0001196854
321.3104,-0.000119594
321.4104,-0.0001195225
321.5104,-0.0001194659
321.6104,-0.0001193784
321.7104,-0.0001193134
321.8104,-0.0001192211
321.9104,-0.0001192004
322.0104,-0.00011911
322.1104,-0.000118997
322.2104,-0.0001189744
322.3105,-0.0001189094
322.4105,-0.000118802
322.5105,-0.0001187559
322.6105,-0.0001187003
322.7105,-0.0001186438
322.8105,-0.0001185694
322.9105,-0.0001184734
323.0105,-0.0001184027
323.1105,-0.0001183378
323.2105,-0.0001182973
323.3105,-0.000118204
323.4105,-0.0001181221
323.5105,-0.0001180731
323.6105,-0.0001180279
323.7105,-0.0001179479
323.8105,-0.000117882
323.9106,-0.0001178
324.0106,-0.0001177501
324.1106,-0.0001176785
324.2106,-0.000117622
324.3106,-0.0001175571
324.4106,-0.000117477
324.5106,-0.0001174214
324.6106,-0.0001173621
324.7106,-0.0001172915
324.8106,-0.0001172256
324.9106,-0.0001171493
325.0106,-0.0001170815
325.1106,-0.0001170344
325.2106,-0.0001169581
325.3106,-0.0001168687
325.4106,-0.0001168216
325.5107,-0.0001167312
325.6107,-0.0001166803
325.7107,-0.0001166144
325.8107,-0.0001165494
325.9107,-0.0001164901
326.0107,-0.0001164166
326.1107,-0.0001163432
326.2107,-0.0001162612
326.3107,-0.0001162254
326.4107,-0.0001161501
326.5107,-0.0001160343
326.6107,-0.0001160098
326.7107,-0.0001159514
326.8107,-0.0001158874
326.9107,-0.0001157857
327.0107,-0.0001157329
327.1107,-0.0001156651
327.2108,-0.0001156284
327.3108,-0.0001155483
327.4108,-0.0001154843
327.5108,-0.0001154212
327.6108,-0.0001153722
327.7108,-0.0001152969
327.8108,-0.0001152508
327.9108,-0.0001151839
328.0108,-0.000115053
328.1108,-0.0001150605
328.2108,-0.0001150172
328.3108,-0.0001149372
328.4108,-0.0001148439
328.5108,-0.0001147978
328.6108,-0.0001147243
328.7108,-0.0001146772
328.8109,-0.0001146113
328.9109,-0.0001145284
329.0109,-0.0001144541
329.1109,-0.0001144041
329.2109,-0.0001143429
329.3109,-0.0001142695
329.4109,-0.0001142337
329.5109,-0.0001141292
329.6109,-0.0001140736
329.7109,-0.0001140152
329.8109,-0.0001139493
329.9109,-0.0001138758
330.0109,-0.0001138231
330.1109,-0.0001137779
330.2109,-0.0001136978
330.3109,-0.0001136432
330.4109,-0.0001136027
330.511,-0.0001135001
330.611,-0.0001134473
330.711,-0.0001133937
330.811,-0.0001133315
330.911,-0.0001132741
331.011,-0.0001132176
331.111,-0.0001131149
331.211,-0.000113065
331.311,-0.0001130236
331.411,-0.0001129567
331.511,-0.0001128832
331.611,-0.0001128305
331.711,-0.0001127514
331.811,-0.0001126845
331.911,-0.0001126393
332.011,-0.0001125941
332.1111,-0.0001124943
332.2111,-0.0001124482
332.3111,-0.0001123973
332.4111,-0.000112305
332.5111,-0.000112224
332.6111,-0.0001122118
332.7111,-0.0001121487
332.8111,-0.0001120555
332.9111,-0.0001120131
333.0111,-0.0001119255
333.1111,-0.0001118662
333.2111,-0.0001118229
333.3111,-0.0001117315
333.4111,-0.0001116486
333.5111,-0.0001116251
333.6111,-0.0001115582
333.7112,-0.0001114867
333.8112,-0.0001114273
333.9112,-0.0001113454
334.0112,-0.000111303
334.1112,-0.0001112258
334.2112,-0.000111158
334.3112,-0.0001111024
334.4112,-0.0001110544
334.5112,-0.0001109527
334.6112,-0.0001109066
334.7112,-0.0001108708
334.8112,-0.0001107973
334.9112,-0.0001107173
335.0112,-0.0001106608
335.1112,-0.0001106061
335.2112,-0.0001105487
335.3112,-0.0001104922
335.4113,-0.0001104159
335.5113,-0.0001103613
335.6113,-0.0001103086
335.7113,-0.0001102455
335.8113,-0.0001101607
335.9113,-0.0001101108
336.0113,-0.0001100816
336.1113,-0.0001100166
336.2113,-0.0001099507
336.3113,-0.0001098631
336.4113,-0.0001098236
336.5113,-0.0001097812
336.6113,-0.0001097266
336.7113,-0.0001096428
336.8113,-0.000109607
336.9113,-0.0001095533
337.0114,-0.0001094657
337.1114,-0.0001094158
337.2114,-0.0001093894
337.3114,-0.0001093131
337.4114,-0.000109234
337.5114,-0.0001091841
337.6114,-0.0001091041
337.7114,-0.000109073
337.8114,-0.0001090316
337.9114,-0.0001089204
338.0114,-0.0001088347
338.1114,-0.0001088442
338.2114,-0.0001087942
338.3114,-0.0001087142
338.4114,-0.0001086417
338.5114,-0.0001085776
338.6115,-0.0001085098
338.7115,-0.0001084769
338.8115,-0.0001084289
338.9115,-0.0001083469
339.0115,-0.0001082885
339.1115,-0.0001082311
339.2115,-0.0001081416
339.3115,-0.0001081181
339.4115,-0.0001080945
339.5115,-0.0001079957
339.6115,-0.0001079382
339.7115,-0.0001078714
339.8115,-0.0001078064
339.9115,-0.00010778
340.0115,-0.0001077047
340.1115,-0.0001076359
340.2115,-0.0001075662
340.3116,-0.0001075465
340.4116,-0.0001074711
340.5116,-0.000107409
340.6116,-0.0001073609
340.7116,-0.000107263
340.8116,-0.000107214
340.9116,-0.0001071839
341.0116,-0.0001071264
341.1116,-0.0001070539
341.2116,-0.000107004
341.3116,-0.0001069428
341.4116,-0.000106891
341.5116,-0.0001068402
341.6116,-0.0001067601
341.7116,-0.0001066951
341.8116,-0.0001066772
341.9117,-0.0001066716
342.0117,-0.0001065567
342.1117,-0.0001065058
342.2117,-0.0001064653
342.3117,-0.0001063994
342.4117,-0.0001063392
342.5117,-0.0001062478
342.6117,-0.0001061715
342.7117,-0.0001061282
342.8117,-0.0001060717
342.9117,-0.0001059804
343.0117,-0.0001059615
343.1117,-0.0001059003
343.2117,-0.0001057788
343.3117,-0.0001057704
343.4117,-0.0001057525
343.5117,-0.0001056639
343.6118,-0.0001055971
343.7118,-0.000105565
343.8118,-0.0001054991
343.9118,-0.0001054257
344.0118,-0.0001053729
344.1118,-0.0001053155
344.2118,-0.0001052552
344.3118,-0.0001052204
344.4118,-0.0001051714
344.5118,-0.0001050631
344.6118,-0.0001050264
344.7118,-0.0001050217
344.8118,-0.0001049294
344.9118,-0.0001048475
345.0118,-0.0001048098
345.1118,-0.0001047617
345.2119,-0.0001047034
345.3119,-0.0001046186
345.4119,-0.0001045913
345.5119,-0.0001045273
345.6119,-0.0001044651
345.7119,-0.0001044246
345.8119,-0.0001043935
345.9119,-0.0001043257
346.0119,-0.000104256
346.1119,-0.0001042165
346.2119,-0.0001041619
346.3119,-0.0001040705
346.4119,-0.0001040131
346.5119,-0.0001039952
346.6119,-0.0001039424
346.7119,-0.0001038558
346.812,-0.0001038097
346.912,-0.0001037371
347.012,-0.0001037014
347.112,-0.0001036515
347.212,-0.0001035714
347.312,-0.0001034942
347.412,-0.0001034593
347.512,-0.0001034019
347.612,-0.0001033482
347.712,-0.0001032917
347.812,-0.0001032512
347.912,-0.0001031655
348.012,-0.0001031297
348.112,-0.0001030987
348.212,-0.0001030205
348.312,-0.0001029574
348.412,-0.0001029
348.5121,-0.0001028472
348.6121,-0.0001027832
348.7121,-0.0001027446
348.8121,-0.0001026899
348.9121,-0.0001026278
349.0121,-0.0001025939
349.1121,-0.0001025355
349.2121,-0.0001024508
349.3121,-0.0001024442
349.4121,-0.000102365
349.5121,-0.0001023104
349.6121,-0.0001022794
349.7121,-0.0001021984
349.8121,-0.0001021108
349.9121,-0.0001021089
350.0121,-0.0001020288
350.1122,-0.0001019356
350.2122,-0.0001019337
350.3122,-0.0001018801
350.4122,-0.0001017896
350.5122,-0.0001017369
350.6122,-0.000101703
350.7122,-0.0001016493
350.8122,-0.0001015985
350.9122,-0.0001015382
351.0122,-0.0001014911
351.1122,-0.0001014299
351.2122,-0.0001013941
351.3122,-0.0001013499
351.4122,-0.0001012585
351.5122,-0.0001012387
351.6122,-0.0001011917
351.7122,-0.000101121
351.8123,-0.0001010673
351.9123,-0.0001010221
352.0123,-0.0001009694
352.1123,-0.0001009308
352.2123,-0.0001008649
352.3123,-0.0001007924
352.4123,-0.0001007481
352.5123,-0.0001007123
352.6123,-0.0001006596
352.7123,-0.0001005852
352.8123,-0.000100556
352.9123,-0.0001004769
353.0123,-0.0001004354
353.1123,-0.0001003931
353.2123,-0.0001003092
353.3123,-0.0001002659
353.4124,-0.000100232
353.5124,-0.0001001539
353.6124,-0.0001001124
353.7124,-0.0001000804
353.8124,-9.998153E-05
353.9124,-9.99382E-05
354.0124,-9.990619E-05
354.1124,-9.986381E-05
354.2124,-9.976399E-05
354.3124,-9.973856E-05
354.4124,-9.968958E-05
354.5124,-9.963214E-05
354.6124,-9.958976E-05
354.7124,-9.951819E-05
354.8124,-9.944097E-05
354.9124,-9.943814E-05
355.0125,-9.937694E-05
355.1125,-9.929218E-05
355.2125,-9.923567E-05
355.3125,-9.92093E-05
355.4125,-9.914904E-05
355.5125,-9.910477E-05
355.6125,-9.90445E-05
355.7125,-9.897576E-05
355.8125,-9.894185E-05
355.9125,-9.890889E-05
356.0125,-9.882697E-05
356.1125,-9.876292E-05
356.2125,-9.872902E-05
356.3125,-9.869606E-05
356.4125,-9.864238E-05
356.5125,-9.857175E-05
356.6125,-9.851807E-05
356.7126,-9.848605E-05
356.8126,-9.842579E-05
356.9126,-9.834291E-05
357.0126,-9.829395E-05
357.1126,-9.830054E-05
357.2126,-9.823461E-05
357.3126,-9.816304E-05
357.4126,-9.812726E-05
357.5126,-9.808017E-05
357.6126,-9.801613E-05
357.7126,-9.79973E-05
357.8126,-9.79455E-05
357.9126,-9.786733E-05
358.0126,-9.781649E-05
358.1126,-9.779483E-05
358.2126,-9.77289E-05
358.3127,-9.764321E-05
358.4127,-9.76046E-05
358.5127,-9.754433E-05
358.6127,-9.751043E-05
358.7127,-9.74445E-05
358.8127,-9.736916E-05
358.9127,-9.733809E-05
359.0127,-9.731549E-05
359.1127,-9.723167E-05
359.2127,-9.718646E-05
359.3127,-9.713655E-05
359.4127,-9.710359E-05
359.5127,-9.70631E-05
359.6127,-9.699812E-05
359.7127,-9.694444E-05
359.8127,-9.687852E-05
359.9128,-9.684367E-05
360.0128,-9.681637E-05
360.1128,-9.674762E-05
360.2128,-9.670053E-05
360.3128,-9.663932E-05
360.4128,-9.658752E-05
360.5128,-9.657434E-05
360.6128,-9.65282E-05
360.7128,-9.64425E-05
360.8128,-9.6402E-05
360.9128,-9.635962E-05
361.0128,-9.630501E-05
361.1128,-9.625321E-05
361.2128,-9.621931E-05
361.3128,-9.614585E-05
361.4128,-9.610724E-05
361.5128,-9.606298E-05
361.6129,-9.600271E-05
361.7129,-9.595844E-05
361.8129,-9.591231E-05
361.9129,-9.585392E-05
362.0129,-9.582473E-05
362.1129,-9.577293E-05
362.2129,-9.57136E-05
362.3129,-9.566745E-05
362.4129,-9.56439E-05
362.5129,-9.556858E-05
362.6129,-9.549512E-05
362.7129,-9.549982E-05
362.8129,-9.54584E-05
362.9129,-9.535292E-05
363.0129,-9.533973E-05
363.1129,-9.529642E-05
363.213,-9.523143E-05
363.313,-9.516928E-05
363.413,-9.51429E-05
363.513,-9.5093E-05
363.613,-9.508075E-05
363.713,-9.502613E-05
363.813,-9.493102E-05
363.913,-9.488581E-05
364.013,-9.486039E-05
364.113,-9.482178E-05
364.213,-9.473797E-05
364.313,-9.470124E-05
364.413,-9.464379E-05
364.513,-9.461554E-05
364.613,-9.458352E-05
364.713,-9.451948E-05
364.813,-9.445451E-05
364.9131,-9.443285E-05
365.0131,-9.434715E-05
365.1131,-9.431136E-05
365.2131,-9.428876E-05
365.3131,-9.42784E-05
365.4131,-9.420494E-05
365.5131,-9.414091E-05
365.6131,-9.41136E-05
365.7131,-9.404391E-05
365.8131,-9.399777E-05
365.9131,-9.395256E-05
366.0131,-9.390547E-05
366.1131,-9.386216E-05
366.2131,-9.382448E-05
366.3131,-9.373502E-05
366.4131,-9.370771E-05
366.5132,-9.365026E-05
366.6132,-9.358623E-05
366.7132,-9.35834E-05
366.8132,-9.354667E-05
366.9132,-9.346287E-05
367.0132,-9.339882E-05
367.1132,-9.335927E-05
367.2132,-9.334797E-05
367.3132,-9.328487E-05
367.4132,-9.323119E-05
367.5132,-9.317469E-05
367.6132,-9.313419E-05
367.7132,-9.310218E-05
367.8132,-9.305227E-05
367.9132,-9.297786E-05
368.0132,-9.294962E-05
368.1133,-9.292419E-05
368.2133,-9.284697E-05
368.3133,-9.281118E-05
368.4133,-9.277069E-05
368.5133,-9.272925E-05
368.6133,-9.265957E-05
368.7133,-9.262848E-05
368.8133,-9.261812E-05
368.9133,-9.254467E-05
369.0133,-9.248252E-05
369.1133,-9.242884E-05
369.2133,-9.239494E-05
369.3133,-9.233278E-05
369.4133,-9.229417E-05
369.5133,-9.22113E-05
369.6133,-9.220377E-05
369.7133,-9.215385E-05
369.8134,-9.207569E-05
369.9134,-9.204084E-05
370.0134,-9.201636E-05
370.1134,-9.192878E-05
370.2134,-9.189676E-05
370.3134,-9.188734E-05
370.4134,-9.179128E-05
370.5134,-9.174796E-05
370.6134,-9.1699E-05
370.7134,-9.167263E-05
370.8134,-9.162554E-05
370.9134,-9.154926E-05
371.0134,-9.151818E-05
371.1134,-9.148334E-05
371.2134,-9.145226E-05
371.3134,-9.13515E-05
371.4135,-9.133737E-05
371.5135,-9.132607E-05
371.6135,-9.128746E-05
371.7135,-9.120836E-05
371.8135,-9.116316E-05
371.9135,-9.112642E-05
372.0135,-9.110854E-05
372.1135,-9.104449E-05
372.2135,-9.098798E-05
372.3135,-9.095315E-05
372.4135,-9.090701E-05
372.5135,-9.088629E-05
372.6135,-9.081377E-05
372.7135,-9.079494E-05
372.8135,-9.073184E-05
372.9135,-9.070359E-05
373.0135,-9.068663E-05
373.1136,-9.062543E-05
373.2136,-9.056609E-05
373.3136,-9.05077E-05
373.4136,-9.050205E-05
373.5136,-9.044084E-05
373.6136,-9.038716E-05
373.7136,-9.03429E-05
373.8136,-9.029582E-05
373.9136,-9.026757E-05
374.0136,-9.021672E-05
374.1136,-9.017433E-05
374.2136,-9.011783E-05
374.3136,-9.011312E-05
374.4136,-9.002554E-05
374.5136,-8.998788E-05
374.6136,-8.995585E-05
374.7137,-8.993043E-05
374.8137,-8.983531E-05
374.9137,-8.981177E-05
375.0137,-8.979387E-05
375.1137,-8.975244E-05
375.2137,-8.966203E-05
375.3137,-8.967804E-05
375.4137,-8.962624E-05
375.5137,-8.955373E-05
375.6137,-8.95283E-05
375.7137,-8.949629E-05
375.8137,-8.942001E-05
375.9137,-8.939458E-05
376.0137,-8.934655E-05
376.1137,-8.927027E-05
376.2137,-8.925239E-05
376.3138,-8.920529E-05
376.4138,-8.912336E-05
376.5138,-8.909887E-05
376.6138,-8.908099E-05
376.7138,-8.898681E-05
376.8138,-8.892089E-05
376.9138,-8.891524E-05
377.0138,-8.888982E-05
377.1138,-8.881636E-05
377.2138,-8.87994E-05
377.3138,-8.871936E-05
377.4138,-8.871371E-05
377.5138,-8.866004E-05
377.6138,-8.858093E-05
377.7138,-8.853101E-05
377.8138,-8.853007E-05
377.9138,-8.847733E-05
378.0139,-8.8402E-05
378.1139,-8.83728E-05
378.2139,-8.834455E-05
378.3139,-8.829559E-05
378.4139,-8.826733E-05
378.5139,-8.823342E-05
378.6139,-8.817315E-05
378.7139,-8.812606E-05
378.8139,-8.807616E-05
378.9139,-8.803378E-05
379.0139,-8.800364E-05
379.1139,-8.797351E-05
379.2139,-8.790099E-05
379.3139,-8.788499E-05
379.4139,-8.785297E-05
379.5139,-8.78087E-05
379.614,-8.773902E-05
379.714,-8.770134E-05
379.814,-8.766556E-05
379.914,-8.765802E-05
380.014,-8.762696E-05
380.114,-8.752807E-05
380.214,-8.750547E-05
380.314,-8.748569E-05
380.414,-8.743296E-05
380.514,-8.739717E-05
380.614,-8.734726E-05
380.714,-8.729358E-05
380.814,-8.725214E-05
380.914,-8.723143E-05
381.014,-8.713913E-05
381.114,-8.712595E-05
381.2141,-8.714478E-05
381.3141,-8.705438E-05
381.4141,-8.699788E-05
381.5141,-8.698658E-05
381.6141,-8.694891E-05
381.7141,-8.688863E-05
381.8141,-8.686886E-05
381.9141,-8.680294E-05
382.0141,-8.674078E-05
382.1141,-8.676339E-05
382.2141,-8.669464E-05
382.3141,-8.660422E-05
382.4141,-8.660517E-05
382.5141,-8.658634E-05
382.6141,-8.65223E-05
382.7141,-8.646297E-05
382.8141,-8.643283E-05
382.9142,-8.638763E-05
383.0142,-8.637257E-05
383.1142,-8.631982E-05
383.2142,-8.624732E-05
383.3142,-8.622754E-05
383.4142,-8.620776E-05
383.5142,-8.615314E-05
383.6142,-8.611924E-05
383.7142,-8.608346E-05
383.8142,-8.599681E-05
383.9142,-8.59761E-05
384.0142,-8.595915E-05
384.1142,-8.591583E-05
384.2142,-8.586121E-05
384.3142,-8.582353E-05
384.4142,-8.578963E-05
384.5143,-8.573689E-05
384.6143,-8.571995E-05
384.7143,-8.564272E-05
384.8143,-8.559563E-05
384.9143,-8.561258E-05
385.0143,-8.557869E-05
385.1143,-8.550335E-05
385.2143,-8.544025E-05
385.3143,-8.542612E-05
385.4143,-8.539034E-05
385.5143,-8.533854E-05
385.6143,-8.529993E-05
385.7143,-8.524437E-05
385.8143,-8.52067E-05
385.9143,-8.518128E-05
386.0143,-8.514266E-05
386.1143,-8.509368E-05
386.2144,-8.504849E-05
386.3144,-8.499105E-05
386.4144,-8.496374E-05
386.5144,-8.495244E-05
386.6144,-8.487898E-05
386.7144,-8.484508E-05
386.8144,-8.480834E-05
386.9144,-8.476221E-05
387.0144,-8.473207E-05
387.1144,-8.466897E-05
387.2144,-8.46379E-05
387.3144,-8.460775E-05
387.4144,-8.455596E-05
387.5144,-8.449193E-05
387.6144,-8.448722E-05
387.7144,-8.445803E-05
387.8145,-8.438739E-05
387.9145,-8.433371E-05
388.0145,-8.431394E-05
388.1145,-8.427438E-05
388.2145,-8.421412E-05
388.3145,-8.419151E-05
388.4145,-8.413124E-05
388.5145,-8.411524E-05
388.6145,-8.409169E-05
388.7145,-8.402199E-05
388.8145,-8.397963E-05
388.9145,-8.393725E-05
389.0145,-8.390993E-05
389.1145,-8.384779E-05
389.2145,-8.382894E-05
389.3145,-8.379975E-05
389.4146,-8.370746E-05
389.5146,-8.369146E-05
389.6146,-8.367827E-05
389.7146,-8.356809E-05
389.8146,-8.356244E-05
389.9146,-8.357091E-05
390.0146,-8.349746E-05
390.1146,-8.342966E-05
390.2146,-8.342307E-05
390.3146,-8.337785E-05
390.4146,-8.331946E-05
390.5146,-8.332324E-05
390.6146,-8.324131E-05
390.7146,-8.316503E-05
390.8146,-8.318198E-05
390.9146,-8.315844E-05
391.0146,-8.307839E-05
391.1147,-8.304637E-05
391.2147,-8.302659E-05
391.3147,-8.299081E-05
391.4147,-8.295032E-05
391.5147,-8.290417E-05
391.6147,-8.286085E-05
391.7147,-8.285897E-05
391.8147,-8.280529E-05
391.9147,-8.27469E-05
392.0147,-8.272618E-05
392.1147,-8.269698E-05
392.2147,-8.263766E-05
392.3147,-8.258586E-05
392.4147,-8.256043E-05
392.5147,-8.251335E-05
392.6147,-8.248886E-05
392.7148,-8.24672E-05
392.8148,-8.240223E-05
392.9148,-8.236173E-05
393.0148,-8.233348E-05
393.1148,-8.229581E-05
393.2148,-8.227415E-05
393.3148,-8.222895E-05
393.4148,-8.218092E-05
393.5148,-8.213572E-05
393.6148,-8.212818E-05
393.7148,-8.208674E-05
393.8148,-8.201895E-05
393.9148,-8.200482E-05
394.0148,-8.195396E-05
394.1148,-8.192383E-05
394.2148,-8.188804E-05
394.3148,-8.183153E-05
394.4149,-8.178446E-05
394.5149,-8.175903E-05
394.6149,-8.173266E-05
394.7149,-8.166296E-05
394.8149,-8.163848E-05
394.9149,-8.159704E-05
395.0149,-8.155372E-05
395.1149,-8.150664E-05
395.2149,-8.15057E-05
395.3149,-8.145108E-05
395.4149,-8.139269E-05
395.5149,-8.13748E-05
395.6149,-8.132959E-05
395.7149,-8.128909E-05
395.8149,-8.127309E-05
395.9149,-8.119399E-05
396.015,-8.11648E-05
396.115,-8.115631E-05
396.215,-8.110452E-05
396.315,-8.105838E-05
396.415,-8.10386E-05
396.515,-8.100188E-05
396.615,-8.096137E-05
396.715,-8.094442E-05
396.815,-8.09369E-05
396.915,-8.084366E-05
397.015,-8.08286E-05
397.115,-8.079186E-05
397.215,-8.075043E-05
397.315,-8.0725E-05
397.415,-8.064684E-05
397.515,-8.062141E-05
397.6151,-8.062329E-05
397.7151,-8.055738E-05
397.8151,-8.049428E-05
397.9151,-8.045284E-05
398.0151,-8.043872E-05
398.1151,-8.038316E-05
398.2151,-8.035961E-05
398.3151,-8.032006E-05
398.4151,-8.025037E-05
398.5151,-8.02353E-05
398.6151,-8.021741E-05
398.7151,-8.014678E-05
398.8151,-8.010629E-05
398.9151,-8.011194E-05
399.0151,-8.005636E-05
399.1151,-8.003094E-05
399.2151,-7.996879E-05
399.3152,-7.994054E-05
399.4152,-7.993772E-05
399.5152,-7.988497E-05
399.6152,-7.982094E-05
399.7152,-7.980022E-05
399.8152,-7.980775E-05
399.9152,-7.974278E-05
400.0152,-7.971923E-05
400.1152,-7.96712E-05
400.2152,-7.962694E-05
400.3152,-7.958362E-05
400.4152,-7.957326E-05
400.5152,-7.95356E-05
400.6152,-7.947532E-05
400.7152,-7.945085E-05
400.8152,-7.940658E-05
400.9153,-7.937456E-05
401.0153,-7.936609E-05
401.1153,-7.930675E-05
401.2153,-7.925685E-05
401.3153,-7.924554E-05
401.4153,-7.920223E-05
401.5153,-7.915984E-05
401.6153,-7.914007E-05
401.7153,-7.909768E-05
401.8153,-7.903648E-05
401.9153,-7.9012E-05
402.0153,-7.899316E-05
402.1153,-7.895173E-05
402.2153,-7.893948E-05
402.3153,-7.886132E-05
402.4153,-7.88293E-05
402.5154,-7.881047E-05
402.6154,-7.877373E-05
402.7154,-7.871158E-05
402.8154,-7.869369E-05
402.9154,-7.86918E-05
403.0154,-7.862212E-05
403.1154,-7.855337E-05
403.2154,-7.85788E-05
403.3154,-7.856467E-05
403.4154,-7.850534E-05
403.5154,-7.846861E-05
403.6154,-7.843754E-05
403.7154,-7.838857E-05
403.8154,-7.836879E-05
403.9154,-7.832077E-05
404.0154,-7.827086E-05
404.1154,-7.827086E-05
404.2155,-7.820681E-05
404.3155,-7.817856E-05
404.4155,-7.815595E-05
404.5155,-7.809945E-05
404.6155,-7.806084E-05
404.7155,-7.802977E-05
404.8155,-7.801753E-05
404.9155,-7.795254E-05
405.0155,-7.79356E-05
405.1155,-7.790546E-05
405.2155,-7.783953E-05
405.3155,-7.782165E-05
405.4155,-7.783013E-05
405.5155,-7.77416E-05
405.6155,-7.771241E-05
405.7155,-7.770298E-05
405.8156,-7.769075E-05
405.9156,-7.764554E-05
406.0156,-7.759564E-05
406.1156,-7.756455E-05
406.2156,-7.751652E-05
406.3156,-7.750899E-05
406.4156,-7.745813E-05
406.5156,-7.741481E-05
406.6156,-7.73828E-05
406.7156,-7.732912E-05
406.8156,-7.730463E-05
406.9156,-7.729993E-05
407.0156,-7.725189E-05
407.1156,-7.724624E-05
407.2156,-7.718032E-05
407.3156,-7.715113E-05
407.4156,-7.710404E-05
407.5157,-7.709934E-05
407.6157,-7.70579E-05
407.7157,-7.698539E-05
407.8157,-7.698822E-05
407.9157,-7.697314E-05
408.0157,-7.693265E-05
408.1157,-7.689027E-05
408.2157,-7.684978E-05
408.3157,-7.681494E-05
408.4157,-7.681211E-05
408.5157,-7.678103E-05
408.6157,-7.671605E-05
408.7157,-7.668498E-05
408.8157,-7.666897E-05
408.9157,-7.664448E-05
409.0157,-7.661435E-05
409.1158,-7.655219E-05
409.2158,-7.650793E-05
409.3158,-7.651452E-05
409.4158,-7.648344E-05
409.5158,-7.642035E-05
409.6158,-7.638738E-05
409.7158,-7.637326E-05
409.8158,-7.633182E-05
409.9158,-7.629792E-05
410.0158,-7.628662E-05
410.1158,-7.621034E-05
410.2158,-7.619151E-05
410.3158,-7.619245E-05
410.4158,-7.615195E-05
410.5158,-7.609922E-05
410.6158,-7.608038E-05
410.7159,-7.60333E-05
410.8159,-7.601446E-05
410.9159,-7.600693E-05
411.0159,-7.595889E-05
411.1159,-7.588262E-05
411.2159,-7.588733E-05
411.3159,-7.586002E-05
411.4159,-7.579975E-05
411.5159,-7.580728E-05
411.6159,-7.57357E-05
411.7159,-7.571216E-05
411.8159,-7.570274E-05
411.9159,-7.567261E-05
412.0159,-7.560387E-05
412.1159,-7.561234E-05
412.2159,-7.558692E-05
412.3159,-7.552664E-05
412.416,-7.547955E-05
412.516,-7.550498E-05
412.616,-7.544566E-05
412.716,-7.538727E-05
412.816,-7.538257E-05
412.916,-7.537032E-05
413.016,-7.530722E-05
413.116,-7.529781E-05
413.216,-7.528838E-05
413.316,-7.521587E-05
413.416,-7.519515E-05
413.516,-7.518198E-05
413.616,-7.514335E-05
413.716,-7.511982E-05
413.816,-7.509251E-05
413.916,-7.502847E-05
414.0161,-7.501151E-05
414.1161,-7.501341E-05
414.2161,-7.493147E-05
414.3161,-7.489474E-05
414.4161,-7.488062E-05
414.5161,-7.486461E-05
414.6161,-7.482882E-05
414.7161,-7.480245E-05
414.8161,-7.47356E-05
414.9161,-7.471205E-05
415.0161,-7.472806E-05
415.1161,-7.466684E-05
415.2161,-7.460658E-05
415.3161,-7.463388E-05
415.4161,-7.460469E-05
415.5161,-7.455383E-05
415.6161,-7.452747E-05
415.7162,-7.448227E-05
415.8162,-7.445307E-05
415.9162,-7.445966E-05
416.0162,-7.441446E-05
416.1162,-7.43589E-05
416.2162,-7.435136E-05
416.3162,-7.434101E-05
416.4162,-7.427038E-05
416.5162,-7.42506E-05
416.6162,-7.424966E-05
416.7162,-7.416772E-05
416.8162,-7.416396E-05
416.9162,-7.411875E-05
417.0162,-7.410086E-05
417.1162,-7.406508E-05
417.2162,-7.404813E-05
417.3163,-7.397938E-05
417.4163,-7.396148E-05
417.5163,-7.394548E-05
417.6163,-7.389745E-05
417.7163,-7.38805E-05
417.8163,-7.386071E-05
417.9163,-7.382211E-05
418.0163,-7.379009E-05
418.1163,-7.374301E-05
418.2163,-7.372512E-05
418.3163,-7.36705E-05
418.4163,-7.366578E-05
418.5163,-7.363376E-05
418.6163,-7.360739E-05
418.7163,-7.355749E-05
418.8163,-7.352547E-05
418.9164,-7.349157E-05
419.0164,-7.347368E-05
419.1164,-7.345766E-05
419.2164,-7.339645E-05
419.3164,-7.337667E-05
419.4164,-7.335972E-05
419.5164,-7.332487E-05
419.6164,-7.329285E-05
419.7164,-7.327308E-05
419.8164,-7.325708E-05
419.9164,-7.320622E-05
420.0164,-7.320246E-05
420.1164,-7.315347E-05
420.2164,-7.310828E-05
420.3164,-7.312241E-05
420.4164,-7.306684E-05
420.5164,-7.299904E-05
420.6165,-7.301128E-05
420.7165,-7.296984E-05
420.8165,-7.291522E-05
420.9165,-7.291241E-05
421.0165,-7.289451E-05
421.1165,-7.282105E-05
421.2165,-7.279185E-05
421.3165,-7.277491E-05
421.4165,-7.274854E-05
421.5165,-7.270427E-05
421.6165,-7.268544E-05
421.7165,-7.265343E-05
421.8165,-7.261011E-05
421.9165,-7.259503E-05
422.0165,-7.255642E-05
422.1165,-7.251687E-05
422.2166,-7.248674E-05
422.3166,-7.245565E-05
422.4166,-7.244342E-05
422.5166,-7.240669E-05
422.6166,-7.237467E-05
422.7166,-7.231627E-05
422.8166,-7.233512E-05
422.9166,-7.229745E-05
423.0166,-7.220986E-05
423.1166,-7.222399E-05
423.2166,-7.222399E-05
423.3166,-7.216278E-05
423.4166,-7.213077E-05
423.5166,-7.210534E-05
423.6166,-7.206295E-05
423.7166,-7.206295E-05
423.8167,-7.201587E-05
423.9167,-7.197915E-05
424.0167,-7.194618E-05
424.1167,-7.193959E-05
424.2167,-7.189533E-05
424.3167,-7.187649E-05
424.4167,-7.186142E-05
424.5167,-7.180963E-05
424.6167,-7.177196E-05
424.7167,-7.176161E-05
424.8167,-7.172771E-05
424.9167,-7.168532E-05
425.0167,-7.169945E-05
425.1167,-7.165895E-05
425.2167,-7.162129E-05
425.3167,-7.163258E-05
425.4167,-7.158833E-05
425.5168,-7.152711E-05
425.6168,-7.151581E-05
425.7168,-7.14838E-05
425.8168,-7.144707E-05
425.9168,-7.144047E-05
426.0168,-7.141316E-05
426.1168,-7.136514E-05
426.2168,-7.136795E-05
426.3168,-7.134253E-05
426.4168,-7.128603E-05
426.5168,-7.125118E-05
426.6168,-7.126154E-05
426.7168,-7.123047E-05
426.8168,-7.117302E-05
426.9168,-7.114665E-05
427.0168,-7.115606E-05
427.1169,-7.108733E-05
427.2169,-7.103929E-05
427.3169,-7.10619E-05
427.4169,-7.104306E-05
427.5169,-7.097808E-05
427.6169,-7.093852E-05
427.7169,-7.095077E-05
427.8169,-7.093382E-05
427.9169,-7.088485E-05
428.0169,-7.084248E-05
428.1169,-7.08048E-05
428.2169,-7.077561E-05
428.3169,-7.073041E-05
428.4169,-7.071062E-05
428.5169,-7.068332E-05
428.6169,-7.062681E-05
428.7169,-7.061646E-05
428.817,-7.061363E-05
428.917,-7.056654E-05
429.017,-7.052888E-05
429.117,-7.049969E-05
429.217,-7.04526E-05
429.317,-7.045353E-05
429.417,-7.042246E-05
429.517,-7.037725E-05
429.617,-7.031604E-05
429.717,-7.033111E-05
429.817,-7.031699E-05
429.917,-7.025484E-05
430.017,-7.021904E-05
430.117,-7.019738E-05
430.217,-7.016442E-05
430.317,-7.018327E-05
430.4171,-7.010699E-05
430.5171,-7.007402E-05
430.6171,-7.009756E-05
430.7171,-7.007779E-05
430.8171,-7.001092E-05
430.9171,-6.997326E-05
431.0171,-6.996949E-05
431.1171,-6.991863E-05
431.2171,-6.990734E-05
431.3171,-6.986684E-05
431.4171,-6.983576E-05
431.5171,-6.979809E-05
431.6171,-6.976984E-05
431.7171,-6.973217E-05
431.8171,-6.97463E-05
431.9171,-6.968415E-05
432.0172,-6.964459E-05
432.1172,-6.963612E-05
432.2172,-6.961916E-05
432.3172,-6.957585E-05
432.4172,-6.952594E-05
432.5172,-6.951086E-05
432.6172,-6.947413E-05
432.7172,-6.946566E-05
432.8172,-6.943741E-05
432.9172,-6.938656E-05
433.0172,-6.936301E-05
433.1172,-6.938091E-05
433.2172,-6.933382E-05
433.3172,-6.928956E-05
433.4172,-6.926413E-05
433.5172,-6.925283E-05
433.6172,-6.921234E-05
433.7173,-6.917655E-05
433.8173,-6.918597E-05
433.9173,-6.913605E-05
434.0173,-6.910968E-05
434.1173,-6.906449E-05
434.2173,-6.90353E-05
434.3173,-6.904847E-05
434.4173,-6.902493E-05
434.5173,-6.895525E-05
434.6173,-6.892605E-05
434.7173,-6.892699E-05
434.8173,-6.888367E-05
434.9173,-6.884601E-05
435.0173,-6.883565E-05
435.1173,-6.880552E-05
435.2173,-6.878573E-05
435.3174,-6.87782E-05
435.4174,-6.872735E-05
435.5174,-6.868403E-05
435.6174,-6.867932E-05
435.7174,-6.866614E-05
435.8174,-6.862752E-05
435.9174,-6.859079E-05
436.0174,-6.856348E-05
436.1174,-6.853994E-05
436.2174,-6.852676E-05
436.3174,-6.851734E-05
436.4174,-6.844765E-05
436.5174,-6.840903E-05
436.6174,-6.840715E-05
436.7174,-6.837137E-05
436.8174,-6.835253E-05
436.9174,-6.833653E-05
437.0175,-6.828943E-05
437.1175,-6.826777E-05
437.2175,-6.826307E-05
437.3175,-6.822446E-05
437.4175,-6.818396E-05
437.5175,-6.816419E-05
437.6175,-6.813688E-05
437.7175,-6.809921E-05
437.8175,-6.810863E-05
437.9175,-6.805777E-05
438.0175,-6.8038E-05
438.1175,-6.800127E-05
438.2175,-6.797114E-05
438.3175,-6.79523E-05
438.4175,-6.793629E-05
438.5175,-6.790144E-05
438.6176,-6.784683E-05
438.7176,-6.785624E-05
438.8176,-6.783364E-05
438.9176,-6.776301E-05
439.0176,-6.773005E-05
439.1176,-6.774323E-05
439.2176,-6.771498E-05
439.3176,-6.768297E-05
439.4176,-6.763305E-05
439.5176,-6.762835E-05
439.6176,-6.758785E-05
439.7176,-6.757938E-05
439.8176,-6.749838E-05
439.9176,-6.746071E-05
440.0176,-6.751251E-05
440.1176,-6.749838E-05
440.2177,-6.741457E-05
440.3177,-6.738256E-05
440.4177,-6.739762E-05
440.5177,-6.735148E-05
440.6177,-6.730721E-05
440.7177,-6.729403E-05
440.8177,-6.725259E-05
440.9177,-6.722905E-05
441.0177,-6.720267E-05
441.1177,-6.717726E-05
441.2177,-6.714617E-05
441.3177,-6.71217E-05
441.4177,-6.707366E-05
441.5177,-6.709345E-05
441.6177,-6.705294E-05
441.7177,-6.701999E-05
441.8177,-6.696913E-05
441.9178,-6.697478E-05
442.0178,-6.693711E-05
442.1178,-6.69211E-05
442.2178,-6.690321E-05
442.3178,-6.685612E-05
442.4178,-6.682599E-05
442.5178,-6.683917E-05
442.6178,-6.682693E-05
442.7178,-6.676948E-05
442.8178,-6.674029E-05
442.9178,-6.675913E-05
443.0178,-6.668285E-05
443.1178,-6.667813E-05
443.2178,-6.666495E-05
443.3178,-6.659621E-05
443.4178,-6.65736E-05
443.5179,-6.656701E-05
443.6179,-6.653406E-05
443.7179,-6.64992E-05
443.8179,-6.646624E-05
443.9179,-6.644742E-05
444.0179,-6.644458E-05
444.1179,-6.641822E-05
444.2179,-6.635419E-05
444.3179,-6.635606E-05
444.4179,-6.6341E-05
444.5179,-6.631463E-05
444.6179,-6.627037E-05
444.7179,-6.625436E-05
444.8179,-6.624965E-05
444.9179,-6.622517E-05
445.0179,-6.619408E-05
445.118,-6.614136E-05
445.218,-6.612157E-05
445.318,-6.612628E-05
445.418,-6.609238E-05
445.518,-6.605376E-05
445.618,-6.603399E-05
445.718,-6.60208E-05
445.818,-6.600856E-05
445.918,-6.59709E-05
446.018,-6.593228E-05
446.118,-6.590215E-05
446.218,-6.593228E-05
446.318,-6.588614E-05
446.418,-6.581927E-05
446.518,-6.584847E-05
446.618,-6.582681E-05
446.718,-6.575994E-05
446.8181,-6.574488E-05
446.9181,-6.571003E-05
447.0181,-6.569592E-05
447.1181,-6.568367E-05
447.2181,-6.566954E-05
447.3181,-6.563093E-05
447.4181,-6.563658E-05
447.5181,-6.560268E-05
447.6181,-6.554335E-05
447.7181,-6.554805E-05
447.8181,-6.550945E-05
447.9181,-6.54812E-05
448.0181,-6.544824E-05
448.1181,-6.543034E-05
448.2181,-6.540208E-05
448.3181,-6.538326E-05
448.4182,-6.535689E-05
448.5182,-6.530227E-05
448.6182,-6.52825E-05
448.7182,-6.532392E-05
448.8182,-6.52759E-05
448.9182,-6.522881E-05
449.0182,-6.521186E-05
449.1182,-6.523351E-05
449.2182,-6.516195E-05
449.3182,-6.512899E-05
449.4182,-6.513653E-05
449.5182,-6.509321E-05
449.6182,-6.506401E-05
449.7182,-6.504895E-05
449.8182,-6.499809E-05
449.9182,-6.500939E-05
450.0182,-6.496984E-05
450.1183,-6.493029E-05
450.2183,-6.491145E-05
450.3183,-6.49058E-05
450.4183,-6.487378E-05
450.5183,-6.484742E-05
450.6183,-6.482482E-05
450.7183,-6.478243E-05
450.8183,-6.478807E-05
450.9183,-6.478997E-05
451.0183,-6.472687E-05
451.1183,-6.468825E-05
451.2183,-6.468544E-05
451.3183,-6.467319E-05
451.4183,-6.461857E-05
451.5183,-6.457337E-05
451.6183,-6.457996E-05
451.7184,-6.456395E-05
451.8184,-6.453193E-05
451.9184,-6.450085E-05
452.0184,-6.446036E-05
452.1184,-6.445282E-05
452.2184,-6.443211E-05
452.3184,-6.439068E-05
452.4184,-6.436712E-05
452.5184,-6.436054E-05
452.6184,-6.432287E-05
452.7184,-6.430497E-05
452.8184,-6.427955E-05
452.9184,-6.425695E-05
453.0184,-6.422775E-05
453.1184,-6.422304E-05
453.2184,-6.420045E-05
453.3185,-6.416559E-05
453.4185,-6.412887E-05
453.5185,-6.408743E-05
453.6185,-6.40912E-05
453.7185,-6.408178E-05
453.8185,-6.403188E-05
453.9185,-6.401868E-05
454.0185,-6.397726E-05
454.1185,-6.398102E-05
454.2185,-6.393864E-05
454.3185,-6.393487E-05
454.4185,-6.392357E-05
454.5185,-6.385577E-05
454.6185,-6.384729E-05
454.7185,-6.384258E-05
454.8185,-6.380114E-05
454.9185,-6.379644E-05
455.0186,-6.378514E-05
455.1186,-6.375971E-05
455.2186,-6.372676E-05
455.3186,-6.372016E-05
455.4186,-6.369191E-05
455.5186,-6.364106E-05
455.6186,-6.365989E-05
455.7186,-6.36241E-05
455.8186,-6.35676E-05
455.9186,-6.359397E-05
456.0186,-6.356948E-05
456.1186,-6.351298E-05
456.2186,-6.347719E-05
456.3186,-6.350827E-05
456.4186,-6.34932E-05
456.5186,-6.344988E-05
456.6187,-6.34254E-05
456.7187,-6.339903E-05
456.8187,-6.335571E-05
456.9187,-6.339337E-05
457.0187,-6.332463E-05
457.1187,-6.328414E-05
457.2187,-6.330298E-05
457.3187,-6.327189E-05
457.4187,-6.324082E-05
457.5187,-6.322198E-05
457.6187,-6.320786E-05
457.7187,-6.315512E-05
457.8187,-6.315135E-05
457.9187,-6.313535E-05
458.0187,-6.310709E-05
458.1187,-6.308637E-05
458.2188,-6.306E-05
458.3188,-6.303834E-05
458.4188,-6.303929E-05
458.5188,-6.298655E-05
458.6188,-6.297808E-05
458.7188,-6.293005E-05
458.8188,-6.295829E-05
458.9188,-6.289708E-05
459.0188,-6.285565E-05
459.1188,-6.285377E-05
459.2188,-6.284434E-05
459.3188,-6.282458E-05
459.4188,-6.279349E-05
459.5188,-6.27483E-05
459.6188,-6.272757E-05
459.7188,-6.272757E-05
459.8188,-6.26965E-05
459.9189,-6.266448E-05
460.0189,-6.264658E-05
460.1189,-6.261174E-05
460.2189,-6.260609E-05
460.3189,-6.25929E-05
460.4189,-6.255053E-05
460.5189,-6.249685E-05
460.6189,-6.249214E-05
460.7189,-6.248084E-05
460.8189,-6.245165E-05
460.9189,-6.244317E-05
461.0189,-6.238479E-05
461.1189,-6.2349E-05
461.2189,-6.235559E-05
461.3189,-6.234711E-05
461.4189,-6.230003E-05
461.519,-6.228872E-05
461.619,-6.226612E-05
461.719,-6.223222E-05
461.819,-6.223128E-05
461.919,-6.220397E-05
462.019,-6.215218E-05
462.119,-6.214088E-05
462.219,-6.214935E-05
462.319,-6.209849E-05
462.419,-6.207024E-05
462.519,-6.207024E-05
462.619,-6.205706E-05
462.719,-6.204011E-05
462.819,-6.200527E-05
462.919,-6.195253E-05
463.019,-6.19563E-05
463.119,-6.195253E-05
463.2191,-6.190733E-05
463.3191,-6.187907E-05
463.4191,-6.187437E-05
463.5191,-6.185177E-05
463.6191,-6.183387E-05
463.7191,-6.180561E-05
463.8191,-6.176795E-05
463.9191,-6.176701E-05
464.0191,-6.177454E-05
464.1191,-6.171992E-05
464.2191,-6.16879E-05
464.3191,-6.167754E-05
464.4191,-6.165965E-05
464.5191,-6.163422E-05
464.6191,-6.160974E-05
464.7191,-6.160032E-05
464.8192,-6.154382E-05
464.9192,-6.154193E-05
465.0192,-6.152593E-05
465.1192,-6.14779E-05
465.2192,-6.146942E-05
465.3192,-6.145718E-05
465.4192,-6.144494E-05
465.5192,-6.141856E-05
465.6192,-6.140632E-05
465.7192,-6.136771E-05
465.8192,-6.134323E-05
465.9192,-6.134134E-05
466.0192,-6.131498E-05
466.1192,-6.129802E-05
466.2192,-6.126695E-05
466.3192,-6.123964E-05
466.4193,-6.12274E-05
466.5193,-6.123681E-05
466.6193,-6.120573E-05
466.7193,-6.115488E-05
466.8193,-6.11417E-05
466.9193,-6.116901E-05
467.0193,-6.112098E-05
467.1193,-6.107295E-05
467.2193,-6.107672E-05
467.3193,-6.101174E-05
467.4193,-6.102681E-05
467.5193,-6.10108E-05
467.6193,-6.097595E-05
467.7193,-6.095147E-05
467.8193,-6.09251E-05
467.9193,-6.090438E-05
468.0193,-6.089402E-05
468.1194,-6.08799E-05
468.2194,-6.08573E-05
468.3194,-6.082716E-05
468.4194,-6.082716E-05
468.5194,-6.079138E-05
468.6194,-6.078667E-05
468.7194,-6.075088E-05
468.8194,-6.070756E-05
468.9194,-6.069531E-05
469.0194,-6.069814E-05
469.1194,-6.065859E-05
469.2194,-6.064823E-05
469.3194,-6.061998E-05
469.4194,-6.059078E-05
469.5194,-6.058796E-05
469.6194,-6.057101E-05
469.7195,-6.053428E-05
469.8195,-6.051921E-05
469.9195,-6.050038E-05
470.0195,-6.044859E-05
470.1195,-6.042975E-05
470.2195,-6.045235E-05
470.3195,-6.043163E-05
470.4195,-6.037324E-05
470.5195,-6.035724E-05
470.6195,-6.034028E-05
470.7195,-6.032428E-05
470.8195,-6.032051E-05
470.9195,-6.029602E-05
471.0195,-6.02367E-05
471.1195,-6.024517E-05
471.2195,-6.022916E-05
471.3195,-6.019808E-05
471.4196,-6.018113E-05
471.5196,-6.014629E-05
471.6196,-6.011803E-05
471.7196,-6.010956E-05
471.8196,-6.010674E-05
471.9196,-6.006342E-05
472.0196,-6.004835E-05
472.1196,-6.003328E-05
472.2196,-6.00088E-05
472.3196,-5.999278E-05
472.4196,-5.997395E-05
472.5196,-5.991745E-05
472.6196,-5.996547E-05
472.7196,-5.992592E-05
472.8196,-5.987413E-05
472.9196,-5.984211E-05
473.0197,-5.98779E-05
473.1197,-5.98487E-05
473.2197,-5.980538E-05
473.3197,-5.979974E-05
473.4197,-5.977996E-05
473.5197,-5.974982E-05
473.6197,-5.972533E-05
473.7197,-5.97404E-05
473.8197,-5.970273E-05
473.9197,-5.963869E-05
474.0197,-5.963587E-05
474.1197,-5.961044E-05
474.2197,-5.962645E-05
474.3197,-5.958219E-05
474.4197,-5.954452E-05
474.5197,-5.953322E-05
474.6198,-5.95464E-05
474.7198,-5.949179E-05
474.8198,-5.944093E-05
474.9198,-5.9456E-05
475.0198,-5.947013E-05
475.1198,-5.943434E-05
475.2198,-5.940232E-05
475.3198,-5.938819E-05
475.4198,-5.935806E-05
475.5198,-5.938631E-05
475.6198,-5.931568E-05
475.7198,-5.925918E-05
475.8198,-5.928272E-05
475.9198,-5.927895E-05
476.0198,-5.92281E-05
476.1198,-5.920361E-05
476.2198,-5.920455E-05
476.3199,-5.919137E-05
476.4199,-5.918102E-05
476.5199,-5.917066E-05
476.6199,-5.913769E-05
476.7199,-5.913204E-05
476.8199,-5.912451E-05
476.9199,-5.907931E-05
477.0199,-5.906706E-05
477.1199,-5.905293E-05
477.2199,-5.901998E-05
477.3199,-5.901339E-05
477.4199,-5.899455E-05
477.5199,-5.895877E-05
477.6199,-5.893334E-05
477.7199,-5.892204E-05
477.8199,-5.889379E-05
477.92,-5.886836E-05
478.02,-5.887401E-05
478.12,-5.883728E-05
478.22,-5.878455E-05
478.32,-5.879867E-05
478.42,-5.878737E-05
478.52,-5.875252E-05
478.62,-5.873558E-05
478.72,-5.87158E-05
478.82,-5.868378E-05
478.92,-5.869037E-05
479.02,-5.868754E-05
479.12,-5.862916E-05
479.22,-5.858866E-05
479.32,-5.860938E-05
479.42,-5.859432E-05
479.5201,-5.856041E-05
479.6201,-5.853875E-05
479.7201,-5.84992E-05
479.8201,-5.851333E-05
479.9201,-5.851709E-05
480.0201,-5.845682E-05
480.1201,-5.844364E-05
480.2201,-5.84361E-05
480.3201,-5.839749E-05
480.4201,-5.83796E-05
480.5201,-5.837113E-05
480.6201,-5.836359E-05
480.7201,-5.834758E-05
480.8201,-5.831556E-05
480.9201,-5.829202E-05
481.0201,-5.827318E-05
481.1201,-5.826753E-05
481.2202,-5.822987E-05
481.3202,-5.821856E-05
481.4202,-5.820161E-05
481.5202,-5.819408E-05
481.6202,-5.817336E-05
481.7202,-5.816677E-05
481.8202,-5.814699E-05
481.9202,-5.811309E-05
482.0202,-5.810556E-05
482.1202,-5.809425E-05
482.2202,-5.804341E-05
482.3202,-5.800197E-05
482.4202,-5.805188E-05
482.5202,-5.804152E-05
482.6202,-5.800291E-05
482.7202,-5.795959E-05
482.8203,-5.796147E-05
482.9203,-5.792945E-05
483.0203,-5.792851E-05
483.1203,-5.789273E-05
483.2203,-5.787013E-05
483.3203,-5.786259E-05
483.4203,-5.784375E-05
483.5203,-5.781174E-05
483.6203,-5.779196E-05
483.7203,-5.777124E-05
483.8203,-5.77364E-05
483.9203,-5.773263E-05
484.0203,-5.774864E-05
484.1203,-5.770343E-05
484.2203,-5.766671E-05
484.3203,-5.765541E-05
484.4203,-5.762904E-05
484.5204,-5.761868E-05
484.6204,-5.762527E-05
484.7204,-5.756971E-05
484.8204,-5.754146E-05
484.9204,-5.753864E-05
485.0204,-5.753204E-05
485.1204,-5.749531E-05
485.2204,-5.747459E-05
485.3204,-5.745105E-05
485.4204,-5.74341E-05
485.5204,-5.745388E-05
485.6204,-5.741621E-05
485.7204,-5.737477E-05
485.8204,-5.736629E-05
485.9204,-5.734464E-05
486.0204,-5.733993E-05
486.1205,-5.731639E-05
486.2205,-5.730038E-05
486.3205,-5.724576E-05
486.4205,-5.725706E-05
486.5205,-5.724576E-05
486.6205,-5.719961E-05
486.7205,-5.718548E-05
486.8205,-5.718266E-05
486.9205,-5.716948E-05
487.0205,-5.716665E-05
487.1205,-5.709508E-05
487.2205,-5.708283E-05
487.3205,-5.708566E-05
487.4205,-5.706494E-05
487.5205,-5.70188E-05
487.6205,-5.701315E-05
487.7206,-5.704611E-05
487.8206,-5.698866E-05
487.9206,-5.696794E-05
488.0206,-5.695664E-05
488.1206,-5.69444E-05
488.2206,-5.692745E-05
488.3206,-5.692463E-05
488.4206,-5.68879E-05
488.5206,-5.685211E-05
488.6206,-5.686247E-05
488.7206,-5.684175E-05
488.8206,-5.680691E-05
488.9206,-5.678619E-05
489.0206,-5.674852E-05
489.1206,-5.677301E-05
489.2206,-5.67909E-05
489.3206,-5.675606E-05
489.4207,-5.668919E-05
489.5207,-5.667883E-05
489.6207,-5.669484E-05
489.7207,-5.665906E-05
489.8207,-5.660161E-05
489.9207,-5.661668E-05
490.0207,-5.661668E-05
490.1207,-5.656865E-05
490.2207,-5.654511E-05
490.3207,-5.652251E-05
490.4207,-5.651309E-05
490.5207,-5.649896E-05
490.6207,-5.647448E-05
490.7207,-5.648484E-05
490.8207,-5.646506E-05
490.9207,-5.63982E-05
491.0208,-5.640573E-05
491.1208,-5.640385E-05
491.2208,-5.637371E-05
491.3208,-5.634075E-05
491.4208,-5.633228E-05
491.5208,-5.633228E-05
491.6208,-5.628236E-05
491.7208,-5.628425E-05
491.8208,-5.626164E-05
491.9208,-5.623622E-05
492.0208,-5.622303E-05
492.1208,-5.621644E-05
492.2208,-5.616088E-05
492.3208,-5.61816E-05
492.4208,-5.615994E-05
492.5208,-5.611568E-05
492.6208,-5.61138E-05
492.7209,-5.611662E-05
492.8209,-5.607424E-05
492.9209,-5.606011E-05
493.0209,-5.603846E-05
493.1209,-5.604599E-05
493.2209,-5.602151E-05
493.3209,-5.599419E-05
493.4209,-5.594899E-05
493.5209,-5.595558E-05
493.6209,-5.595465E-05
493.7209,-5.591132E-05
493.8209,-5.587648E-05
493.9209,-5.591697E-05
494.0209,-5.589908E-05
494.1209,-5.585293E-05
494.2209,-5.586518E-05
494.321,-5.581998E-05
494.421,-5.57889E-05
494.521,-5.581433E-05
494.621,-5.577195E-05
494.721,-5.575029E-05
494.821,-5.574369E-05
494.921,-5.573522E-05
495.021,-5.570414E-05
495.121,-5.565706E-05
495.221,-5.565517E-05
495.321,-5.56514E-05
495.421,-5.564293E-05
495.521,-5.56175E-05
495.621,-5.556759E-05
495.721,-5.558171E-05
495.821,-5.557041E-05
495.9211,-5.554499E-05
496.0211,-5.552898E-05
496.1211,-5.552145E-05
496.2211,-5.549225E-05
496.3211,-5.549884E-05
496.4211,-5.546776E-05
496.5211,-5.54414E-05
496.6211,-5.545082E-05
496.7211,-5.544046E-05
496.8211,-5.543481E-05
496.9211,-5.54235E-05
497.0211,-5.539337E-05
497.1211,-5.538772E-05
497.2211,-5.537642E-05
497.3211,-5.535852E-05
497.4211,-5.534817E-05
497.5211,-5.531615E-05
497.6212,-5.526247E-05
497.7212,-5.526718E-05
497.8212,-5.525211E-05
497.9212,-5.522386E-05
498.0212,-5.521821E-05
498.1212,-5.518431E-05
498.2212,-5.515417E-05
498.3212,-5.516735E-05
498.4212,-5.513439E-05
498.5212,-5.511085E-05
498.6212,-5.510332E-05
498.7212,-5.507695E-05
498.8212,-5.506471E-05
498.9212,-5.507318E-05
499.0212,-5.504116E-05
499.1212,-5.499595E-05
499.2213,-5.500161E-05
499.3213,-5.500349E-05
499.4213,-5.497336E-05
499.5213,-5.49404E-05
499.6213,-5.492533E-05
499.7213,-5.492816E-05
499.8213,-5.494793E-05
499.9213,-5.489613E-05
500.0213,-5.486129E-05
500.1213,-5.483775E-05
500.2213,-5.485093E-05
500.3213,-5.482739E-05
500.4213,-5.478596E-05
500.5213,-5.477277E-05
500.6213,-5.475865E-05
500.7213,-5.47577E-05
500.8214,-5.476523E-05
500.9214,-5.47012E-05
501.0214,-5.467389E-05
501.1214,-5.466635E-05
501.2214,-5.465788E-05
501.3214,-5.465034E-05
501.4214,-5.461738E-05
501.5214,-5.460703E-05
501.6214,-5.456559E-05
501.7214,-5.459196E-05
501.8214,-5.457218E-05
501.9214,-5.453263E-05
502.0214,-5.449684E-05
502.1214,-5.453357E-05
502.2214,-5.452133E-05
502.3214,-5.447612E-05
502.4214,-5.44507E-05
502.5215,-5.444599E-05
502.6215,-5.44441E-05
502.7215,-5.442527E-05
502.8215,-5.439137E-05
502.9215,-5.438101E-05
503.0215,-5.437347E-05
503.1215,-5.433298E-05
503.2215,-5.432922E-05
503.3215,-5.433392E-05
503.4215,-5.428024E-05
503.5215,-5.430473E-05
503.6215,-5.427083E-05
503.7215,-5.423504E-05
503.8215,-5.424069E-05
503.9215,-5.423975E-05
504.0215,-5.420961E-05
504.1216,-5.415688E-05
504.2216,-5.419548E-05
504.3216,-5.416064E-05
504.4216,-5.411544E-05
504.5216,-5.410885E-05
504.6216,-5.40966E-05
504.7216,-5.405894E-05
504.8216,-5.408436E-05
504.9216,-5.404764E-05
505.0216,-5.399302E-05
505.1216,-5.401844E-05
505.2216,-5.400149E-05
505.3216,-5.392992E-05
505.4216,-5.39836E-05
505.5216,-5.39949E-05
505.6216,-5.396853E-05
505.7216,-5.392145E-05
505.8217,-5.39431E-05
505.9217,-5.391768E-05
506.0217,-5.385646E-05
506.1217,-5.384516E-05
506.2217,-5.384516E-05
506.3217,-5.380844E-05
506.4217,-5.382727E-05
506.5217,-5.378772E-05
506.6217,-5.374063E-05
506.7217,-5.374911E-05
506.8217,-5.37444E-05
506.9217,-5.369637E-05
507.0217,-5.370955E-05
507.1217,-5.367754E-05
507.2217,-5.3654E-05
507.3217,-5.36295E-05
507.4218,-5.363516E-05
507.5218,-5.362668E-05
507.6218,-5.359561E-05
507.7218,-5.362668E-05
507.8218,-5.358336E-05
507.9218,-5.354005E-05
508.0218,-5.355605E-05
508.1218,-5.353062E-05
508.2218,-5.351273E-05
508.3218,-5.347412E-05
508.4218,-5.34713E-05
508.5218,-5.345811E-05
508.6218,-5.34534E-05
508.7218,-5.342609E-05
508.8218,-5.340914E-05
508.9218,-5.341103E-05
509.0219,-5.3379E-05
509.1219,-5.335357E-05
509.2219,-5.33677E-05
509.3219,-5.33677E-05
509.4219,-5.3363E-05
509.5219,-5.331215E-05
509.6219,-5.329049E-05
509.7219,-5.330178E-05
509.8219,-5.325093E-05
509.9219,-5.324246E-05
510.0219,-5.321703E-05
510.1219,-5.318972E-05
510.2219,-5.318407E-05
510.3219,-5.318501E-05
510.4219,-5.313604E-05
510.5219,-5.315393E-05
510.6219,-5.311815E-05
510.722,-5.309554E-05
510.822,-5.30833E-05
510.922,-5.308895E-05
511.022,-5.304281E-05
511.122,-5.302962E-05
511.222,-5.304846E-05
511.322,-5.300796E-05
511.422,-5.296653E-05
511.522,-5.297971E-05
511.622,-5.296277E-05
511.722,-5.293074E-05
511.822,-5.292227E-05
511.922,-5.291379E-05
512.022,-5.28959E-05
512.122,-5.288554E-05
512.222,-5.284881E-05
512.322,-5.282621E-05
512.4219,-5.283092E-05
512.5219,-5.282244E-05
512.6219,-5.276217E-05
512.7219,-5.275087E-05
512.8218,-5.276311E-05
512.9218,-5.273298E-05
513.0218,-5.271508E-05
513.1218,-5.271603E-05
513.2217,-5.269154E-05
513.3217,-5.268872E-05
513.4217,-5.266706E-05
513.5217,-5.262279E-05
513.6216,-5.263127E-05
513.7216,-5.262374E-05
513.8216,-5.258889E-05
513.9216,-5.258795E-05
514.0215,-5.258513E-05
514.1215,-5.255782E-05
514.2215,-5.253239E-05
514.3215,-5.250319E-05
514.4214,-5.251356E-05
514.5214,-5.246647E-05
514.6214,-5.248531E-05
514.7214,-5.246176E-05
514.8214,-5.241562E-05
514.9213,-5.24062E-05
515.0213,-5.243539E-05
515.1213,-5.239301E-05
515.2213,-5.237512E-05
515.3212,-5.235723E-05
515.4212,-5.23318E-05
515.5212,-5.233651E-05
515.6212,-5.231862E-05
515.7211,-5.228565E-05
515.8211,-5.228471E-05
515.9211,-5.22574E-05
516.0211,-5.22235E-05
516.121,-5.222821E-05
516.221,-5.222162E-05
516.321,-5.214817E-05
516.421,-5.217077E-05
516.5209,-5.220843E-05
516.6209,-5.219431E-05
516.7209,-5.214345E-05
516.8209,-5.213592E-05
516.9208,-5.211144E-05
517.0208,-5.21152E-05
517.1208,-5.210202E-05
517.2208,-5.206058E-05
517.3207,-5.203327E-05
517.4207,-5.20361E-05
517.5207,-5.202574E-05
517.6207,-5.200314E-05
517.7206,-5.197959E-05
517.8206,-5.198901E-05
517.9206,-5.196829E-05
518.0206,-5.193722E-05
518.1205,-5.193816E-05
518.2205,-5.19212E-05
518.3205,-5.189672E-05
518.4205,-5.188636E-05
518.5204,-5.185905E-05
518.6204,-5.187318E-05
518.7204,-5.185717E-05
518.8204,-5.179596E-05
518.9203,-5.181667E-05
519.0203,-5.180443E-05
519.1203,-5.178088E-05
519.2203,-5.173757E-05
519.3203,-5.177712E-05
519.4202,-5.174604E-05
519.5202,-5.169613E-05
519.6202,-5.171026E-05
519.7202,-5.171403E-05
519.8201,-5.166317E-05
519.9201,-5.165752E-05
520.0201,-5.166788E-05
520.1201,-5.16773E-05
520.22,-5.161232E-05
520.32,-5.157559E-05
520.42,-5.159442E-05
520.52,-5.158972E-05
520.6199,-5.156335E-05
520.7199,-5.153321E-05
520.8199,-5.155204E-05
520.9199,-5.153981E-05
521.0198,-5.151815E-05
521.1198,-5.14833E-05
521.2198,-5.150025E-05
521.3198,-5.151626E-05
521.4197,-5.147765E-05
521.5197,-5.145316E-05
521.6197,-5.143621E-05
521.7197,-5.142586E-05
521.8196,-5.145222E-05
521.9196,-5.139007E-05
522.0196,-5.136182E-05
522.1196,-5.136935E-05
522.2195,-5.134016E-05
522.3195,-5.133074E-05
522.4195,-5.131379E-05
522.5195,-5.132132E-05
522.6194,-5.129025E-05
522.7194,-5.126576E-05
522.8194,-5.126011E-05
522.9194,-5.123092E-05
523.0193,-5.12328E-05
523.1193,-5.122527E-05
523.2193,-5.119702E-05
523.3193,-5.118571E-05
523.4193,-5.118195E-05
523.5192,-5.116028E-05
523.6192,-5.114428E-05
523.7192,-5.116876E-05
523.8192,-5.111508E-05
523.9191,-5.109248E-05
524.0191,-5.109719E-05
524.1191,-5.107177E-05
524.2191,-5.107082E-05
524.319,-5.103881E-05
524.419,-5.102751E-05
524.519,-5.099078E-05
524.619,-5.101432E-05
524.7189,-5.098889E-05
524.8189,-5.094652E-05
524.9189,-5.095687E-05
525.0189,-5.094652E-05
525.1188,-5.092297E-05
525.2188,-5.091073E-05
525.3188,-5.088248E-05
525.4188,-5.086082E-05
525.5187,-5.087683E-05
525.6187,-5.085046E-05
525.7187,-5.080525E-05
525.8187,-5.08175E-05
525.9186,-5.080055E-05
526.0186,-5.077794E-05
526.1186,-5.080337E-05
526.2186,-5.075063E-05
526.3185,-5.073557E-05
526.4185,-5.074875E-05
526.5185,-5.074122E-05
526.6185,-5.070261E-05
526.7184,-5.067718E-05
526.8184,-5.068E-05
526.9184,-5.06687E-05
527.0184,-5.06461E-05
527.1183,-5.062256E-05
527.2183,-5.060937E-05
527.3183,-5.062727E-05
527.4183,-5.060373E-05
527.5182,-5.056323E-05
527.6182,-5.053592E-05
527.7182,-5.057265E-05
527.8182,-5.056135E-05
527.9182,-5.05265E-05
528.0181,-5.051803E-05
528.1181,-5.050861E-05
528.2181,-5.049354E-05
528.3181,-5.046341E-05
528.418,-5.044363E-05
528.518,-5.042856E-05
528.618,-5.042574E-05
528.718,-5.044551E-05
528.8179,-5.039184E-05
528.9179,-5.037112E-05
529.0179,-5.038712E-05
529.1179,-5.037112E-05
529.2178,-5.036735E-05
529.3178,-5.032498E-05
529.4178,-5.030331E-05
529.5178,-5.033062E-05
529.6177,-5.031179E-05
529.7177,-5.027317E-05
529.8177,-5.02647E-05
529.9177,-5.028919E-05
530.0176,-5.025717E-05
530.1176,-5.022797E-05
530.2176,-5.024869E-05
530.3176,-5.01969E-05
530.4175,-5.015546E-05
530.5175,-5.020914E-05
530.6175,-5.021573E-05
530.7175,-5.014887E-05
530.8174,-5.016582E-05
530.9174,-5.016582E-05
531.0174,-5.012344E-05
531.1174,-5.009707E-05
531.2173,-5.00999E-05
531.3173,-5.008483E-05
531.4173,-5.007353E-05
531.5173,-5.004622E-05
531.6172,-5.003774E-05
531.7172,-5.00321E-05
531.8172,-5.001043E-05
531.9172,-4.99577E-05
532.0172,-5.00321E-05
532.1171,-5.00142E-05
532.2171,-4.996241E-05
532.3171,-4.996147E-05
532.4171,-4.994263E-05
532.517,-4.992003E-05
532.617,-4.990025E-05
532.717,-4.991343E-05
532.817,-4.988801E-05
532.9169,-4.98494E-05
533.0169,-4.986447E-05
533.1169,-4.985505E-05
533.2169,-4.981455E-05
533.3168,-4.979948E-05
533.4168,-4.98042E-05
533.5168,-4.975522E-05
533.6168,-4.975899E-05
533.7167,-4.978724E-05
533.8167,-4.97185E-05
533.9167,-4.970814E-05
534.0167,-4.97119E-05
534.1166,-4.969872E-05
534.2166,-4.969119E-05
534.3166,-4.967329E-05
534.4166,-4.962056E-05
534.5165,-4.961679E-05
534.6165,-4.963939E-05
534.7165,-4.961114E-05
534.8165,-4.958383E-05
534.9164,-4.9581E-05
535.0164,-4.957253E-05
535.1164,-4.956688E-05
535.2164,-4.955275E-05
535.3163,-4.948589E-05
535.4163,-4.949248E-05
535.5163,-4.952921E-05
535.6163,-4.951602E-05
535.7162,-4.946611E-05
535.8162,-4.945387E-05
535.9162,-4.944822E-05
536.0162,-4.943032E-05
536.1161,-4.945575E-05
536.2161,-4.941056E-05
536.3161,-4.937665E-05
536.4161,-4.940302E-05
536.5161,-4.939737E-05
536.616,-4.936818E-05
536.716,-4.935781E-05
536.816,-4.931732E-05
536.916,-4.932203E-05
537.0159,-4.930037E-05
537.1159,-4.928342E-05
537.2159,-4.927588E-05
537.3159,-4.928059E-05
537.4158,-4.928342E-05
537.5158,-4.926458E-05
537.6158,-4.924198E-05
537.7158,-4.925046E-05
537.8157,-4.921373E-05
537.9157,-4.919301E-05
538.0157,-4.919678E-05
538.1157,-4.919019E-05
538.2156,-4.91657E-05
538.3156,-4.915817E-05
538.4156,-4.914404E-05
538.5156,-4.913086E-05
538.6155,-4.911956E-05
538.7155,-4.906305E-05
538.8155,-4.90574E-05
538.9155,-4.907153E-05
539.0154,-4.908189E-05
539.1154,-4.900937E-05
539.2154,-4.899148E-05
539.3154,-4.900843E-05
539.4153,-4.900089E-05
539.5153,-4.900372E-05
539.6153,-4.897359E-05
539.7153,-4.897547E-05
539.8152,-4.894722E-05
539.9152,-4.89491E-05
540.0152,-4.893215E-05
540.1152,-4.890861E-05
540.2151,-4.890672E-05
540.3151,-4.887941E-05
540.4151,-4.887376E-05
540.5151,-4.889919E-05
540.6151,-4.883139E-05
540.715,-4.882197E-05
540.815,-4.88361E-05
540.915,-4.885587E-05
541.015,-4.882197E-05
541.1149,-4.879654E-05
541.2149,-4.881161E-05
541.3149,-4.877582E-05
541.4149,-4.877017E-05
541.5148,-4.876829E-05
541.6148,-4.873062E-05
541.7148,-4.872968E-05
541.8148,-4.872309E-05
541.9147,-4.867788E-05
542.0147,-4.867317E-05
542.1147,-4.869013E-05
542.2147,-4.867506E-05
542.3146,-4.865152E-05
542.4146,-4.862421E-05
542.5146,-4.861102E-05
542.6146,-4.861008E-05
542.7145,-4.861008E-05
542.8145,-4.856299E-05
542.9145,-4.85564E-05
543.0145,-4.855263E-05
543.1144,-4.854322E-05
543.2144,-4.853662E-05
543.3144,-4.850931E-05
543.4144,-4.848671E-05
543.5143,-4.851308E-05
543.6143,-4.85046E-05
543.7143,-4.845093E-05
543.8143,-4.847259E-05
543.9142,-4.845752E-05
544.0142,-4.842173E-05
544.1142,-4.840478E-05
544.2142,-4.841043E-05
544.3141,-4.839536E-05
544.4141,-4.836994E-05
544.5141,-4.836334E-05
544.6141,-4.838029E-05
544.7141,-4.831344E-05
544.814,-4.828613E-05
544.914,-4.833133E-05
545.014,-4.833792E-05
545.114,-4.828801E-05
545.2139,-4.828424E-05
545.3139,-4.827106E-05
545.4139,-4.82607E-05
545.5139,-4.826446E-05
545.6138,-4.821644E-05
545.7138,-4.821079E-05
545.8138,-4.82428E-05
545.9138,-4.820608E-05
546.0137,-4.816935E-05
546.1137,-4.81637E-05
546.2137,-4.818159E-05
546.3137,-4.816088E-05
546.4136,-4.815334E-05
546.5136,-4.813262E-05
546.6136,-4.811567E-05
546.7136,-4.811473E-05
546.8135,-4.808177E-05
546.9135,-4.807424E-05
547.0135,-4.806105E-05
547.1135,-4.806764E-05
547.2134,-4.80149E-05
547.3134,-4.801678E-05
547.4134,-4.80215E-05
547.5134,-4.798006E-05
547.6133,-4.798853E-05
547.7133,-4.795087E-05
547.8133,-4.793203E-05
547.9133,-4.793674E-05
548.0132,-4.795181E-05
548.1132,-4.791602E-05
548.2132,-4.788683E-05
548.3132,-4.79019E-05
548.4131,-4.78953E-05
548.5131,-4.785104E-05
548.6131,-4.785481E-05
548.7131,-4.78501E-05
548.813,-4.783127E-05
548.913,-4.778889E-05
549.013,-4.779925E-05
549.113,-4.778889E-05
549.213,-4.779077E-05
549.3129,-4.77823E-05
549.4129,-4.773333E-05
549.5129,-4.77258E-05
549.6129,-4.773898E-05
549.7128,-4.772862E-05
549.8128,-4.770979E-05
549.9128,-4.768907E-05
550.0128,-4.766176E-05
550.1127,-4.765705E-05
550.2127,-4.766458E-05
550.3127,-4.764951E-05
550.4127,-4.764104E-05
550.5126,-4.762314E-05
550.6126,-4.759018E-05
550.7126,-4.759489E-05
550.8126,-4.760525E-05
550.9125,-4.755628E-05
551.0125,-4.755817E-05
551.1125,-4.75318E-05
551.2125,-4.752709E-05
551.3124,-4.751296E-05
551.4124,-4.752803E-05
551.5124,-4.747718E-05
551.6124,-4.745645E-05
551.7123,-4.745552E-05
551.8123,-4.746117E-05
551.9123,-4.744704E-05
552.0123,-4.742349E-05
552.1122,-4.739336E-05
552.2122,-4.739807E-05
552.3122,-4.742161E-05
552.4122,-4.741691E-05
552.5121,-4.735946E-05
552.6121,-4.734816E-05
552.7121,-4.737359E-05
552.8121,-4.733592E-05
552.912,-4.734157E-05
553.012,-4.733215E-05
553.112,-4.729165E-05
553.212,-4.728694E-05
553.312,-4.729448E-05
553.4119,-4.728318E-05
553.5119,-4.723421E-05
553.6119,-4.723798E-05
553.7119,-4.723044E-05
553.8118,-4.721726E-05
553.9118,-4.72295E-05
554.0118,-4.717959E-05
554.1118,-4.716923E-05
554.2117,-4.719277E-05
554.3117,-4.716075E-05
554.4117,-4.716452E-05
554.5117,-4.714569E-05
554.6116,-4.710237E-05
554.7116,-4.710708E-05
554.8116,-4.711838E-05
554.9116,-4.710142E-05
555.0115,-4.708448E-05
555.1115,-4.707317E-05
555.2115,-4.706093E-05
555.3115,-4.705622E-05
555.4114,-4.705622E-05
555.5114,-4.701855E-05
555.6114,-4.698371E-05
555.7114,-4.701761E-05
555.8113,-4.702891E-05
555.9113,-4.699878E-05
556.0113,-4.696582E-05
556.1113,-4.698936E-05
556.2112,-4.696488E-05
556.3112,-4.694415E-05
556.4112,-4.691967E-05
556.5112,-4.692155E-05
556.6111,-4.691496E-05
556.7111,-4.690743E-05
556.8111,-4.687258E-05
556.9111,-4.687541E-05
557.011,-4.68707E-05
557.111,-4.684998E-05
557.211,-4.687541E-05
557.311,-4.683209E-05
557.4109,-4.68142E-05
557.5109,-4.681043E-05
557.6109,-4.682644E-05
557.7109,-4.678218E-05
557.8109,-4.677465E-05
557.9108,-4.67737E-05
558.0108,-4.675581E-05
558.1108,-4.674451E-05
558.2108,-4.673321E-05
558.3107,-4.671061E-05
558.4107,-4.669554E-05
558.5107,-4.671814E-05
558.6107,-4.667011E-05
558.7106,-4.664751E-05
558.8106,-4.664845E-05
558.9106,-4.665316E-05
559.0106,-4.663527E-05
559.1105,-4.661738E-05
559.2105,-4.661643E-05
559.3105,-4.659948E-05
559.4105,-4.657971E-05
559.5104,-4.659101E-05
559.6104,-4.656464E-05
559.7104,-4.654863E-05
559.8104,-4.656276E-05
559.9103,-4.65298E-05
560.0103,-4.65119E-05
560.1103,-4.652415E-05
560.2103,-4.65006E-05
560.3102,-4.646952E-05
560.4102,-4.650907E-05
560.5102,-4.647706E-05
560.6102,-4.642997E-05
560.7101,-4.644598E-05
560.8101,-4.646387E-05
560.9101,-4.642903E-05
561.0101,-4.640549E-05
561.11,-4.640925E-05
561.21,-4.640455E-05
561.31,-4.640643E-05
561.41,-4.637535E-05
561.5099,-4.635557E-05
561.6099,-4.634145E-05
561.7099,-4.63471E-05
561.8099,-4.630189E-05
561.9099,-4.630189E-05
562.0098,-4.631037E-05
562.1098,-4.628306E-05
562.2098,-4.626893E-05
562.3098,-4.627458E-05
562.4097,-4.623692E-05
562.5097,-4.625293E-05
562.6097,-4.625952E-05
562.7097,-4.625857E-05
562.8096,-4.622938E-05
562.9096,-4.621996E-05
563.0096,-4.620678E-05
563.1096,-4.618512E-05
563.2095,-4.620395E-05
563.3095,-4.618041E-05
563.4095,-4.615404E-05
563.5095,-4.613333E-05
563.6094,-4.61305E-05
563.7094,-4.61079E-05
563.8094,-4.609E-05
563.9094,-4.610884E-05
564.0093,-4.605139E-05
564.1093,-4.605139E-05
564.2093,-4.605893E-05
564.3093,-4.601843E-05
564.4092,-4.600243E-05
564.5092,-4.602032E-05
564.6092,-4.601655E-05
564.7092,-4.597606E-05
564.8091,-4.600054E-05
564.9091,-4.596947E-05
565.0091,-4.592709E-05
565.1091,-4.594027E-05
565.209,-4.59544E-05
565.309,-4.593744E-05
565.409,-4.586023E-05
565.509,-4.590166E-05
565.6089,-4.590166E-05
565.7089,-4.588942E-05
565.8089,-4.587435E-05
565.9089,-4.584516E-05
566.0089,-4.58508E-05
566.1088,-4.585269E-05
566.2088,-4.581125E-05
566.3088,-4.578865E-05
566.4088,-4.580278E-05
566.5087,-4.577264E-05
566.6087,-4.576888E-05
566.7087,-4.576228E-05
566.8087,-4.573968E-05
566.9086,-4.571708E-05
567.0086,-4.575758E-05
567.1086,-4.572273E-05
567.2086,-4.56973E-05
567.3085,-4.56973E-05
567.4085,-4.57039E-05
567.5085,-4.568412E-05
567.6085,-4.56408E-05
567.7084,-4.566622E-05
567.8084,-4.565964E-05
567.9084,-4.564645E-05
568.0084,-4.563421E-05
568.1083,-4.55956E-05
568.2083,-4.559089E-05
568.3083,-4.559842E-05
568.4083,-4.557582E-05
568.5082,-4.555887E-05
568.6082,-4.554663E-05
568.7082,-4.553721E-05
568.8082,-4.554569E-05
568.9081,-4.553909E-05
569.0081,-4.550613E-05
569.1081,-4.549766E-05
569.2081,-4.549672E-05
569.308,-4.546376E-05
569.408,-4.549201E-05
569.508,-4.54581E-05
569.608,-4.53903E-05
569.7079,-4.545057E-05
569.8079,-4.545999E-05
569.9079,-4.541667E-05
570.0079,-4.539218E-05
570.1078,-4.540631E-05
570.2078,-4.539407E-05
570.3078,-4.537994E-05
570.4078,-4.537711E-05
570.5078,-4.532908E-05
570.6077,-4.532061E-05
570.7077,-4.534415E-05
570.8077,-4.531685E-05
570.9077,-4.530366E-05
571.0076,-4.532344E-05
571.1076,-4.528671E-05
571.2076,-4.526882E-05
571.3076,-4.5282E-05
571.4075,-4.526128E-05
571.5075,-4.523774E-05
571.6075,-4.523209E-05
571.7075,-4.521231E-05
571.8074,-4.522079E-05
571.9074,-4.52076E-05
572.0074,-4.51737E-05
572.1074,-4.517747E-05
572.2073,-4.519348E-05
572.3073,-4.516334E-05
572.4073,-4.514639E-05
572.5073,-4.519348E-05
572.6072,-4.516617E-05
572.7072,-4.514168E-05
572.8072,-4.512944E-05
572.9072,-4.514357E-05
573.0071,-4.511343E-05
573.1071,-4.508801E-05
573.2071,-4.508801E-05
573.3071,-4.506069E-05
573.407,-4.504092E-05
573.507,-4.506258E-05
573.607,-4.504657E-05
573.707,-4.500795E-05
573.8069,-4.49797E-05
573.9069,-4.498912E-05
574.0069,-4.498912E-05
574.1069,-4.496464E-05
574.2068,-4.496181E-05
574.3068,-4.494203E-05
574.4068,-4.495145E-05
574.5068,-4.494392E-05
574.6068,-4.491755E-05
574.7067,-4.490719E-05
574.8067,-4.491284E-05
574.9067,-4.490154E-05
575.0067,-4.487706E-05
575.1066,-4.487423E-05
575.2066,-4.484974E-05
575.3066,-4.484033E-05
575.4066,-4.484504E-05
575.5065,-4.482903E-05
575.6065,-4.479418E-05
575.7065,-4.484315E-05
575.8065,-4.482808E-05
575.9064,-4.48149E-05
576.0064,-4.478288E-05
576.1064,-4.479042E-05
576.2064,-4.478759E-05
576.3063,-4.477158E-05
576.4063,-4.477911E-05
576.5063,-4.472638E-05
576.6063,-4.473862E-05
576.7062,-4.473957E-05
576.8062,-4.471037E-05
576.9062,-4.470001E-05
577.0062,-4.469059E-05
577.1061,-4.466611E-05
577.2061,-4.467176E-05
577.3061,-4.468023E-05
577.4061,-4.464162E-05
577.506,-4.461337E-05
577.606,-4.464162E-05
577.706,-4.461714E-05
577.806,-4.461525E-05
577.9059,-4.460489E-05
578.0059,-4.458606E-05
578.1059,-4.455498E-05
578.2059,-4.457758E-05
578.3058,-4.456534E-05
578.4058,-4.454651E-05
578.5058,-4.453992E-05
578.6058,-4.451355E-05
578.7057,-4.450695E-05
578.8057,-4.450695E-05
578.9057,-4.451731E-05
579.0057,-4.448247E-05
579.1057,-4.446835E-05
579.2056,-4.447494E-05
579.3056,-4.44674E-05
579.4056,-4.447305E-05
579.5056,-4.444009E-05
579.6055,-4.442597E-05
579.7055,-4.443162E-05
579.8055,-4.441655E-05
579.9055,-4.4393E-05
580.0054,-4.437888E-05
580.1054,-4.439112E-05
580.2054,-4.437229E-05
580.3054,-4.437135E-05
580.4053,-4.435346E-05
580.5053,-4.433839E-05
580.6053,-4.434215E-05
580.7053,-4.433368E-05
580.8052,-4.429883E-05
580.9052,-4.428847E-05
581.0052,-4.431107E-05
581.1052,-4.427999E-05
581.2051,-4.426493E-05
581.3051,-4.428188E-05
581.4051,-4.426116E-05
581.5051,-4.423103E-05
581.605,-4.42461E-05
581.705,-4.422443E-05
581.805,-4.419242E-05
581.905,-4.420748E-05
582.0049,-4.419995E-05
582.1049,-4.417923E-05
582.2049,-4.416416E-05
582.3049,-4.416793E-05
582.4048,-4.417264E-05
582.5048,-4.415286E-05
582.6048,-4.413874E-05
582.7048,-4.412461E-05
582.8047,-4.413121E-05
582.9047,-4.411802E-05
583.0047,-4.409824E-05
583.1047,-4.407376E-05
583.2047,-4.407658E-05
583.3046,-4.406905E-05
583.4046,-4.406246E-05
583.5046,-4.402855E-05
583.6046,-4.402008E-05
583.7045,-4.403044E-05
583.8045,-4.40408E-05
583.9045,-4.400596E-05
584.0045,-4.397676E-05
584.1044,-4.3973E-05
584.2044,-4.399371E-05
584.3044,-4.396923E-05
584.4044,-4.397017E-05
584.5043,-4.392873E-05
584.6043,-4.392685E-05
584.7043,-4.395981E-05
584.8043,-4.394568E-05
584.9042,-4.388541E-05
585.0042,-4.389671E-05
585.1042,-4.389766E-05
585.2042,-4.38873E-05
585.3041,-4.38694E-05
585.4041,-4.387317E-05
585.5041,-4.385339E-05
585.6041,-4.384963E-05
585.704,-4.385528E-05
585.804,-4.383173E-05
585.904,-4.381667E-05
586.004,-4.380913E-05
586.1039,-4.37837E-05
586.2039,-4.379312E-05
586.3039,-4.379877E-05
586.4039,-4.377335E-05
586.5038,-4.376864E-05
586.6038,-4.381855E-05
586.7038,-4.378088E-05
586.8038,-4.372908E-05
586.9037,-4.375263E-05
587.0037,-4.374415E-05
587.1037,-4.370178E-05
587.2037,-4.372344E-05
587.3036,-4.372344E-05
587.4036,-4.367541E-05
587.5036,-4.36415E-05
587.6036,-4.367164E-05
587.7036,-4.367352E-05
587.8035,-4.364904E-05
587.9035,-4.364245E-05
588.0035,-4.361043E-05
588.1035,-4.361137E-05
588.2034,-4.361608E-05
588.3034,-4.357746E-05
588.4034,-4.355015E-05
588.5034,-4.356993E-05
588.6033,-4.360007E-05
588.7033,-4.354733E-05
588.8033,-4.353509E-05
588.9033,-4.35511E-05
589.0032,-4.35398E-05
589.1032,-4.35106E-05
589.2032,-4.348518E-05
589.3032,-4.349554E-05
589.4031,-4.35106E-05
589.5031,-4.348329E-05
589.6031,-4.345316E-05
589.7031,-4.344374E-05
589.803,-4.349647E-05
589.903,-4.342773E-05
590.003,-4.340513E-05
590.103,-4.345787E-05
590.2029,-4.344563E-05
590.3029,-4.34202E-05
590.4029,-4.340984E-05
590.5029,-4.339759E-05
590.6028,-4.335334E-05
590.7028,-4.342114E-05
590.8028,-4.335334E-05
590.9028,-4.332508E-05
591.0027,-4.335616E-05
591.1027,-4.333638E-05
591.2027,-4.330531E-05
591.3027,-4.329965E-05
591.4026,-4.330908E-05
591.5026,-4.328647E-05
591.6026,-4.326481E-05
591.7026,-4.326575E-05
591.8026,-4.325727E-05
591.9025,-4.32714E-05
592.0025,-4.323468E-05
592.1025,-4.319513E-05
592.2025,-4.321207E-05
592.3024,-4.324974E-05
592.4024,-4.319983E-05
592.5024,-4.315651E-05
592.6024,-4.320642E-05
592.7023,-4.319513E-05
592.8023,-4.315086E-05
592.9023,-4.316028E-05
593.0023,-4.315275E-05
593.1022,-4.313579E-05
593.2022,-4.313203E-05
593.3022,-4.311413E-05
593.4022,-4.312732E-05
593.5021,-4.314898E-05
593.6021,-4.31292E-05
593.7021,-4.307835E-05
593.8021,-4.307552E-05
593.902,-4.310472E-05
594.002,-4.306046E-05
594.102,-4.302185E-05
594.202,-4.304916E-05
594.3019,-4.304256E-05
594.4019,-4.299642E-05
594.5019,-4.301808E-05
594.6019,-4.300112E-05
594.7018,-4.299077E-05
594.8018,-4.298889E-05
594.9018,-4.296063E-05
595.0018,-4.297853E-05
595.1017,-4.29644E-05
595.2017,-4.291449E-05
595.3017,-4.292391E-05
595.4017,-4.291543E-05
595.5016,-4.291825E-05
595.6016,-4.287211E-05
595.7016,-4.28674E-05
595.8016,-4.290884E-05
595.9016,-4.286175E-05
596.0015,-4.284668E-05
596.1015,-4.283256E-05
596.2015,-4.284292E-05
596.3015,-4.283162E-05
596.4014,-4.282597E-05
596.5014,-4.280148E-05
596.6014,-4.279583E-05
596.7014,-4.281749E-05
596.8013,-4.279583E-05
596.9013,-4.277417E-05
597.0013,-4.277323E-05
597.1013,-4.276664E-05
597.2012,-4.27591E-05
597.3012,-4.276381E-05
597.4012,-4.272143E-05
597.5012,-4.269695E-05
597.6011,-4.271484E-05
597.7011,-4.269318E-05
597.8011,-4.267623E-05
597.9011,-4.26913E-05
598.001,-4.268E-05
598.101,-4.264044E-05
598.201,-4.265269E-05
598.301,-4.264044E-05
598.4009,-4.262349E-05
598.5009,-4.262443E-05
598.6009,-4.262726E-05
598.7009,-4.258394E-05
598.8008,-4.258865E-05
598.9008,-4.260466E-05
599.0008,-4.257358E-05
599.1008,-4.253968E-05
599.2007,-4.255004E-05
599.3007,-4.256416E-05
599.4007,-4.256793E-05
599.5007,-4.253215E-05
599.6006,-4.251802E-05
599.7006,-4.250766E-05
599.8006,-4.254627E-05
599.9006,-4.250578E-05
600.0005,-4.249165E-05
