EXPID. 0661
[电化学]: i-t : @ 0(V) X 600(sec)
起始电位 (V),0
静置时间 (秒),0
运行时间 (秒),600
记录间隔,0.1
电解液 信息:
HNO3,0.4
0.1,0.002127283
0.2,-0.001614034
0.3,-0.004375521
0.4,-0.004131813
0.5,-0.003759195
0.6,-0.003427483
0.7,-0.003143171
0.8000001,-0.002902885
0.9000001,-0.002689855
1,-0.002502333
1.1,-0.002341437
1.2,-0.002193112
1.3,-0.002065352
1.4,-0.001954097
1.5,-0.001852281
1.6,-0.001762651
1.7,-0.00168388
1.8,-0.001612219
1.9,-0.001548543
2,-0.001490911
2.1,-0.001438952
2.2,-0.00139139
2.3,-0.001349371
2.4,-0.001308971
2.5,-0.001273731
2.6,-0.001240947
2.7,-0.001209806
2.799999,-0.001182128
2.899999,-0.001155905
2.999999,-0.001130507
3.099999,-0.001107901
3.199999,-0.001086033
3.299999,-0.001066105
3.399999,-0.001046924
3.499999,-0.001029457
3.599999,-0.001012297
3.699999,-0.0009964504
3.799999,-0.0009813084
3.899998,-0.0009668405
3.999998,-0.0009531676
4.099998,-0.0009401396
4.199998,-0.0009277417
4.299998,-0.0009160548
4.399998,-0.0009045535
4.499998,-0.0008939467
4.599998,-0.000883663
4.699998,-0.0008738869
4.799998,-0.0008643566
4.899998,-0.0008549591
4.999998,-0.0008465089
5.099998,-0.0008383507
5.199997,-0.0008301417
5.299997,-0.0008224421
5.399997,-0.0008150862
5.499997,-0.0008076729
5.599997,-0.0008007568
5.699997,-0.0007945207
5.799997,-0.0007879097
5.899997,-0.0007820305
5.999997,-0.000775798
6.099997,-0.0007695827
6.199996,-0.0007638758
6.299996,-0.0007583026
6.399996,-0.0007528217
6.499996,-0.00074758
6.599996,-0.0007425531
6.699996,-0.0007373547
6.799996,-0.0007328608
6.899996,-0.0007279034
6.999996,-0.0007232731
7.099996,-0.0007187706
7.199996,-0.0007144933
7.299995,-0.0007101123
7.399995,-0.0007060356
7.499995,-0.0007019531
7.599995,-0.0006980939
7.699995,-0.0006945606
7.799995,-0.0006907004
7.899995,-0.0006870003
7.999995,-0.0006834971
8.099995,-0.0006798451
8.199995,-0.0006763249
8.299995,-0.0006732953
8.399996,-0.0006699183
8.499996,-0.0006668248
8.599997,-0.00066362
8.699997,-0.0006605613
8.799997,-0.0006575835
8.899998,-0.0006547131
8.999998,-0.000651725
9.099998,-0.0006490392
9.199999,-0.000646116
9.299999,-0.0006434047
9.4,-0.0006408093
9.5,-0.0006380105
9.6,-0.0006354472
9.700001,-0.0006329949
9.800001,-0.0006302206
9.900002,-0.0006279689
10,-0.0006254639
10.1,-0.0006232046
10.2,-0.0006212806
10.3,-0.0006188595
10.4,-0.0006165871
10.5,-0.0006146726
10.6,-0.0006122984
10.7,-0.0006101447
10.8,-0.0006083611
10.90001,-0.0006062082
11.00001,-0.0006039077
11.10001,-0.0006021325
11.20001,-0.0006000729
11.30001,-0.0005980199
11.40001,-0.0005963003
11.50001,-0.0005942398
11.60001,-0.0005924515
11.70001,-0.0005907771
11.80001,-0.0005888484
11.90001,-0.0005872776
12.00001,-0.0005858179
12.10001,-0.0005839147
12.20001,-0.0005825765
12.30001,-0.0005810527
12.40001,-0.0005793059
12.50001,-0.0005776756
12.60001,-0.0005761944
12.70001,-0.0005748505
12.80001,-0.0005736385
12.90001,-0.0005727562
13.00001,-0.0005713709
13.10001,-0.0005695975
13.20001,-0.0005682405
13.30001,-0.0005666716
13.40001,-0.0005653729
13.50002,-0.0005638925
13.60002,-0.0005623378
13.70002,-0.0005608037
13.80002,-0.0005591217
13.90002,-0.0005576969
14.00002,-0.0005561401
14.10002,-0.0005547643
14.20002,-0.0005532895
14.30002,-0.0005519721
14.40002,-0.000550503
14.50002,-0.0005491978
14.60002,-0.0005479538
14.70002,-0.0005465703
14.80002,-0.0005454713
14.90002,-0.0005440814
15.00002,-0.00054276
15.10002,-0.0005416705
15.20002,-0.0005403445
15.30002,-0.0005392117
15.40002,-0.0005381692
15.50002,-0.0005369072
15.60002,-0.0005356707
15.70002,-0.0005346678
15.80002,-0.0005334172
15.90002,-0.0005323012
16.00002,-0.000531287
16.10003,-0.0005300589
16.20003,-0.0005290136
16.30003,-0.0005280041
16.40003,-0.0005268787
16.50003,-0.0005258993
16.60003,-0.0005248709
16.70003,-0.0005236533
16.80003,-0.0005227501
16.90003,-0.0005218263
17.00003,-0.0005207207
17.10003,-0.0005197197
17.20003,-0.0005188401
17.30003,-0.0005177468
17.40003,-0.0005170131
17.50003,-0.0005160036
17.60003,-0.000515173
17.70003,-0.0005144827
17.80003,-0.0005134901
17.90003,-0.0005126756
18.00003,-0.0005116594
18.10003,-0.0005106782
18.20003,-0.0005098155
18.30003,-0.0005090396
18.40003,-0.0005080535
18.50003,-0.00050719
18.60003,-0.0005063
18.70004,-0.0005055071
18.80004,-0.0005045588
18.90004,-0.0005038082
19.00004,-0.0005029738
19.10004,-0.0005021329
19.20004,-0.0005012439
19.30004,-0.0005006383
19.40004,-0.0004996881
19.50004,-0.0004989216
19.60004,-0.0004981719
19.70004,-0.0004972999
19.80004,-0.0004965578
19.90004,-0.0004958854
20.00004,-0.0004951433
20.10004,-0.000494114
20.20004,-0.0004934275
20.30004,-0.0004927833
20.40004,-0.000491883
20.50004,-0.0004911682
20.60004,-0.000490525
20.70004,-0.0004895965
20.80004,-0.0004890512
20.90004,-0.0004884363
21.00004,-0.0004875558
21.10004,-0.0004870868
21.20004,-0.0004862825
21.30005,-0.0004853088
21.40005,-0.0004848295
21.50005,-0.0004841938
21.60005,-0.0004831993
21.70005,-0.0004826936
21.80005,-0.0004820382
21.90005,-0.0004812528
22.00005,-0.0004806746
22.10005,-0.000479988
22.20005,-0.0004792629
22.30005,-0.0004787195
22.40005,-0.0004780019
22.50005,-0.0004773719
22.60005,-0.0004767541
22.70005,-0.0004760168
22.80005,-0.0004754885
22.90005,-0.0004748942
23.00005,-0.0004745316
23.10005,-0.0004739421
23.20005,-0.0004732707
23.30005,-0.0004725399
23.40005,-0.0004720144
23.50005,-0.0004712525
23.60005,-0.0004707139
23.70005,-0.0004701987
23.80005,-0.0004697872
23.90005,-0.0004689877
24.00006,-0.0004685912
24.10006,-0.0004678218
24.20006,-0.0004672803
24.30006,-0.000466817
24.40006,-0.0004661737
24.50006,-0.0004655522
24.60006,-0.0004650051
24.70006,-0.0004643318
24.80006,-0.0004638449
24.90006,-0.0004632921
25.00006,-0.0004626291
25.10006,-0.000462129
25.20006,-0.0004615583
25.30006,-0.0004610149
25.40006,-0.0004605601
25.50006,-0.0004599197
25.60006,-0.0004593641
25.70006,-0.0004588198
25.80006,-0.000458283
25.90006,-0.0004577622
26.00006,-0.0004572932
26.10006,-0.0004567489
26.20006,-0.0004562357
26.30006,-0.0004557139
26.40006,-0.0004552083
26.50006,-0.0004547261
26.60007,-0.0004541978
26.70007,-0.0004535988
26.80007,-0.0004531807
26.90007,-0.0004526477
27.00007,-0.0004520629
27.10007,-0.0004516269
27.20007,-0.0004511446
27.30007,-0.0004506004
27.40007,-0.0004502029
27.50007,-0.0004496332
27.60007,-0.0004491256
27.70007,-0.0004487762
27.80007,-0.000448231
27.90007,-0.0004479277
28.00007,-0.0004475567
28.10007,-0.0004470387
28.20007,-0.0004468881
28.30007,-0.0004467515
28.40007,-0.0004460622
28.50007,-0.0004457099
28.60007,-0.0004455329
28.70007,-0.0004449773
28.80007,-0.0004446053
28.90007,-0.0004443068
29.00007,-0.0004436231
29.10007,-0.0004432257
29.20008,-0.0004427049
29.30008,-0.0004421945
29.40008,-0.0004419035
29.50008,-0.0004414053
29.60008,-0.0004408393
29.70008,-0.0004405511
29.80008,-0.0004400501
29.90008,-0.0004394446
30.00008,-0.0004392101
30.10008,-0.0004386423
30.20008,-0.0004380942
30.30008,-0.0004378484
30.40008,-0.0004372918
30.50008,-0.0004368181
30.60008,-0.0004364424
30.70008,-0.0004359272
30.80008,-0.0004356005
30.90008,-0.0004351324
31.00008,-0.0004345589
31.10008,-0.0004342076
31.20008,-0.0004337273
31.30008,-0.0004333422
31.40008,-0.0004330135
31.50008,-0.0004324852
31.60008,-0.0004320266
31.70008,-0.0004317874
31.80009,-0.000431277
31.90009,-0.0004309897
32.00008,-0.0004305594
32.10008,-0.0004299991
32.20008,-0.0004295385
32.30008,-0.0004292023
32.40008,-0.0004288124
32.50008,-0.0004284659
32.60007,-0.0004280176
32.70007,-0.0004277935
32.80007,-0.0004276871
32.90007,-0.0004270034
33.00007,-0.0004265127
33.10007,-0.0004261417
33.20007,-0.0004258479
33.30006,-0.0004253365
33.40006,-0.0004250361
33.50006,-0.0004246095
33.60006,-0.0004241622
33.70006,-0.0004238552
33.80006,-0.0004235453
33.90005,-0.0004231263
34.00005,-0.000422808
34.10005,-0.00042242
34.20005,-0.0004219058
34.30005,-0.0004216468
34.40005,-0.0004212579
34.50005,-0.0004208087
34.60004,-0.0004205789
34.70004,-0.0004201372
34.80004,-0.0004197963
34.90004,-0.0004194761
35.00004,-0.0004190665
35.10004,-0.0004187774
35.20004,-0.0004184986
35.30003,-0.0004180259
35.40003,-0.0004177885
35.50003,-0.0004174533
35.60003,-0.0004172226
35.70003,-0.0004168666
35.80003,-0.0004163194
35.90002,-0.000416069
36.00002,-0.0004157328
36.10002,-0.0004152026
36.20002,-0.0004148579
36.30002,-0.0004145603
36.40002,-0.0004141582
36.50002,-0.0004140866
36.60001,-0.0004137325
36.70001,-0.0004131712
36.80001,-0.000412917
36.90001,-0.0004126137
37.00001,-0.0004121231
37.10001,-0.0004117935
37.2,-0.0004115279
37.3,-0.0004109902
37.4,-0.0004108244
37.5,-0.0004104929
37.6,-0.0004100767
37.7,-0.0004099232
37.8,-0.0004095211
37.89999,-0.0004090832
37.99999,-0.0004088779
38.09999,-0.0004085935
38.19999,-0.0004081688
38.29999,-0.0004078175
38.39999,-0.0004075274
38.49998,-0.0004071461
38.59998,-0.000406888
38.69998,-0.0004065471
38.79998,-0.0004061732
38.89998,-0.0004059501
38.99998,-0.0004055272
39.09998,-0.0004052033
39.19997,-0.0004049452
39.29997,-0.00040456
39.39997,-0.0004043745
39.49997,-0.0004039404
39.59997,-0.000403527
39.69997,-0.0004033301
39.79996,-0.0004029666
39.89996,-0.0004027962
39.99996,-0.0004025165
40.09996,-0.0004020927
40.19996,-0.0004017443
40.29996,-0.0004015804
40.39996,-0.0004011576
40.49995,-0.000400843
40.59995,-0.0004006782
40.69995,-0.0004002817
40.79995,-0.0003999267
40.89995,-0.0003996423
40.99995,-0.0003994116
41.09995,-0.0003989775
41.19994,-0.0003988466
41.29994,-0.0003985433
41.39994,-0.0003982071
41.49994,-0.0003980188
41.59994,-0.0003976317
41.69994,-0.0003973727
41.79993,-0.0003971448
41.89993,-0.0003968021
41.99993,-0.0003965129
42.09993,-0.0003962841
42.19993,-0.0003958999
42.29993,-0.000395655
42.39993,-0.0003954535
42.49992,-0.0003950344
42.59992,-0.0003948282
42.69992,-0.0003945485
42.79992,-0.0003941417
42.89992,-0.0003939411
42.99992,-0.0003936228
43.09991,-0.0003932668
43.19991,-0.0003930549
43.29991,-0.0003927969
43.39991,-0.0003925209
43.49991,-0.0003922855
43.59991,-0.0003920736
43.69991,-0.0003916442
43.7999,-0.0003913447
43.8999,-0.0003911263
43.9999,-0.0003908739
44.0999,-0.0003905442
44.1999,-0.000390354
44.2999,-0.0003900263
44.39989,-0.000389691
44.49989,-0.0003894773
44.59989,-0.000389271
44.69989,-0.0003888953
44.79989,-0.0003886957
44.89989,-0.000388479
44.99989,-0.0003881202
45.09988,-0.0003878698
45.19988,-0.0003876428
45.29988,-0.0003872614
45.39988,-0.0003871229
45.49988,-0.0003868357
45.59988,-0.0003866333
45.69987,-0.000386686
45.79987,-0.0003861285
45.89987,-0.0003857217
45.99987,-0.0003855107
46.09987,-0.0003853139
46.19987,-0.0003850408
46.29987,-0.000384763
46.39986,-0.0003846283
46.49986,-0.0003843684
46.59986,-0.0003840312
46.69986,-0.0003840585
46.79986,-0.0003836235
46.89986,-0.0003833532
46.99986,-0.0003832233
47.09985,-0.0003828286
47.19985,-0.0003826026
47.29985,-0.0003824426
47.39985,-0.000382047
47.49985,-0.0003817937
47.59985,-0.0003816289
47.69984,-0.0003812569
47.79984,-0.000380996
47.89984,-0.0003808407
47.99984,-0.0003804301
48.09984,-0.000380238
48.19984,-0.0003800534
48.29984,-0.0003798132
48.39983,-0.0003796117
48.49983,-0.0003793744
48.59983,-0.0003790646
48.69983,-0.0003787189
48.79983,-0.0003784863
48.89983,-0.0003783592
48.99982,-0.0003780814
49.09982,-0.0003780362
49.19982,-0.0003778262
49.29982,-0.0003774683
49.39982,-0.00037736
49.49982,-0.000377167
49.59982,-0.0003767291
49.69981,-0.0003764381
49.79981,-0.0003763156
49.89981,-0.0003760303
49.99981,-0.0003757139
50.09981,-0.0003754954
50.19981,-0.0003752213
50.2998,-0.0003749718
50.3998,-0.0003748654
50.4998,-0.0003745423
50.5998,-0.0003742222
50.6998,-0.0003740517
50.7998,-0.0003736788
50.8998,-0.000373515
50.99979,-0.0003734321
51.09979,-0.0003732032
51.19979,-0.0003729226
51.29979,-0.0003727097
51.39979,-0.000372479
51.49979,-0.0003722897
51.59978,-0.0003720317
51.69978,-0.0003716569
51.79978,-0.0003714572
51.89978,-0.0003712463
51.99978,-0.0003709045
52.09978,-0.0003707302
52.19978,-0.000370491
52.29977,-0.0003701755
52.39977,-0.0003700852
52.49977,-0.0003698073
52.59977,-0.0003694881
52.69977,-0.0003693873
52.79977,-0.0003691283
52.89977,-0.0003688072
52.99976,-0.0003686942
53.09976,-0.0003684136
53.19976,-0.0003681132
53.29976,-0.0003679775
53.39976,-0.0003676668
53.49976,-0.0003673438
53.59975,-0.0003672665
53.69975,-0.0003669501
53.79975,-0.0003666987
53.89975,-0.0003665442
53.99975,-0.0003662749
54.09975,-0.0003660338
54.19975,-0.0003658521
54.29974,-0.0003655036
54.39974,-0.0003653162
54.49974,-0.0003653124
54.59974,-0.0003649028
54.69974,-0.0003646532
54.79974,-0.000364447
54.89973,-0.0003641833
54.99973,-0.0003640759
55.09973,-0.0003638189
55.19973,-0.0003635919
55.29973,-0.000363299
55.39973,-0.0003630994
55.49973,-0.0003627839
55.59972,-0.0003626511
55.69972,-0.0003623874
55.79972,-0.0003621737
55.89972,-0.0003619985
55.99972,-0.0003618177
56.09972,-0.0003615258
56.19971,-0.0003614306
56.29971,-0.0003610897
56.39971,-0.0003610587
56.49971,-0.0003608025
56.59971,-0.000360455
56.69971,-0.0003603373
56.79971,-0.0003601179
56.8997,-0.0003597741
56.9997,-0.0003595943
57.0997,-0.000359389
57.1997,-0.0003591648
57.2997,-0.0003591836
57.3997,-0.0003588908
57.49969,-0.0003585028
57.59969,-0.0003583239
57.69969,-0.0003581525
57.79969,-0.0003578568
57.89969,-0.0003577645
57.99969,-0.0003575187
58.09969,-0.0003572183
58.19968,-0.0003571109
58.29968,-0.0003569593
58.39968,-0.0003566589
58.49968,-0.0003564621
58.59968,-0.0003562709
58.69968,-0.0003560063
58.79967,-0.0003558716
58.89967,-0.0003557322
58.99967,-0.0003554761
59.09967,-0.0003553781
59.19967,-0.0003551841
59.29967,-0.0003548235
59.39967,-0.0003546982
59.49966,-0.0003544213
59.59966,-0.0003542038
59.69966,-0.0003540201
59.79966,-0.0003537687
59.89966,-0.0003535794
59.99966,-0.0003533949
60.09966,-0.0003531905
60.19965,-0.0003529918
60.29965,-0.0003527705
60.39965,-0.0003525916
60.49965,-0.000352439
60.59965,-0.0003521979
60.69965,-0.0003522403
60.79964,-0.0003520049
60.89964,-0.0003516498
60.99964,-0.0003514709
61.09964,-0.0003512731
61.19964,-0.0003510113
61.29964,-0.0003509464
61.39964,-0.0003507636
61.49963,-0.0003505376
61.59963,-0.0003502956
61.69963,-0.0003502024
61.79963,-0.0003499302
61.89963,-0.0003499566
61.99963,-0.0003496882
62.09962,-0.0003493482
62.19962,-0.0003492183
62.29962,-0.000349013
62.39962,-0.0003487483
62.49962,-0.0003485873
62.59962,-0.0003483679
62.69962,-0.0003481438
62.79961,-0.0003479196
62.89961,-0.0003478612
62.99961,-0.0003475881
63.09961,-0.0003473923
63.19961,-0.0003472293
63.29961,-0.000346976
63.3996,-0.0003467782
63.4996,-0.0003465965
63.5996,-0.0003463902
63.6996,-0.0003461953
63.7996,-0.0003460936
63.8996,-0.0003458826
63.9996,-0.0003456689
64.09959,-0.0003455107
64.19959,-0.0003453364
64.29959,-0.000345182
64.39959,-0.000345005
64.49959,-0.0003447921
64.59959,-0.0003445021
64.69958,-0.000344391
64.79958,-0.0003442619
64.89958,-0.000344066
64.99958,-0.0003438919
65.09958,-0.0003436922
65.19958,-0.0003434398
65.29958,-0.0003432891
65.39957,-0.0003431978
65.49957,-0.000342935
65.59957,-0.0003427712
65.69957,-0.0003426158
65.79957,-0.0003423154
65.89957,-0.0003421694
65.99957,-0.0003420018
66.09956,-0.0003417739
66.19956,-0.0003415337
66.29956,-0.0003414527
66.39956,-0.0003412314
66.49956,-0.0003409282
66.59956,-0.0003408783
66.69955,-0.0003405336
66.79955,-0.0003404253
66.89955,-0.0003403311
66.99955,-0.0003400044
67.09955,-0.0003397878
67.19955,-0.0003396776
67.29955,-0.0003393838
67.39954,-0.0003392143
67.49954,-0.0003390429
67.59954,-0.0003387961
67.69954,-0.0003386775
67.79954,-0.0003384561
67.89954,-0.0003382076
67.99953,-0.0003380183
68.09953,-0.0003378469
68.19953,-0.0003375973
68.29953,-0.000337521
68.39953,-0.0003372866
68.49953,-0.0003370313
68.59953,-0.0003369381
68.69952,-0.0003366848
68.79952,-0.000336487
68.89952,-0.0003364409
68.99952,-0.0003361621
69.09952,-0.0003359587
69.19952,-0.0003357995
69.29951,-0.0003355858
69.39951,-0.0003354049
69.49951,-0.0003351996
69.59951,-0.0003350716
69.69951,-0.0003348248
69.79951,-0.000334645
69.89951,-0.0003344595
69.9995,-0.0003343238
70.0995,-0.0003341468
70.1995,-0.0003338822
70.2995,-0.0003337371
70.3995,-0.0003335855
70.4995,-0.0003333595
70.59949,-0.0003332371
70.69949,-0.000333029
70.79949,-0.000332802
70.89949,-0.0003327013
70.99949,-0.0003324752
71.09949,-0.0003322775
71.19949,-0.0003321023
71.29948,-0.0003319224
71.39948,-0.0003317586
71.49948,-0.0003315966
71.59948,-0.0003314045
71.69948,-0.0003312557
71.79948,-0.0003310325
71.89948,-0.0003308781
71.99947,-0.0003307151
72.09947,-0.0003305447
72.19947,-0.0003303978
72.29947,-0.0003303046
72.39947,-0.0003301614
72.49947,-0.0003299203
72.59946,-0.0003298016
72.69946,-0.0003296208
72.79946,-0.0003294193
72.89946,-0.0003292366
72.99946,-0.0003290313
73.09946,-0.0003288354
73.19946,-0.000328729
73.29945,-0.0003284898
73.39945,-0.000328357
73.49945,-0.0003283617
73.59945,-0.000328067
73.69945,-0.0003279257
73.79945,-0.000327727
73.89944,-0.0003275057
73.99944,-0.0003273814
74.09944,-0.0003272373
74.19944,-0.0003269981
74.29944,-0.0003268851
74.39944,-0.0003266996
74.49944,-0.000326532
74.59943,-0.0003263248
74.69943,-0.0003261845
74.79943,-0.0003259895
74.89943,-0.0003258662
74.99943,-0.0003256439
75.09943,-0.0003255394
75.19942,-0.0003253623
75.29942,-0.0003251467
75.39942,-0.0003249978
75.49942,-0.0003248218
75.59942,-0.0003245892
75.69942,-0.000324447
75.79942,-0.0003243453
75.89941,-0.0003240919
75.99941,-0.0003239601
76.09941,-0.0003237887
76.19941,-0.0003235759
76.29941,-0.0003234045
76.39941,-0.0003232538
76.4994,-0.0003230438
76.5994,-0.0003228931
76.6994,-0.0003228555
76.7994,-0.0003225692
76.8994,-0.000322329
76.9994,-0.0003222395
77.0994,-0.0003220352
77.19939,-0.0003218704
77.29939,-0.0003217414
77.39939,-0.0003215314
77.49939,-0.0003213976
77.59939,-0.0003213016
77.69939,-0.0003211048
77.79939,-0.0003209842
77.89938,-0.0003207704
77.99938,-0.0003206169
78.09938,-0.0003204211
78.19938,-0.0003202949
78.29938,-0.0003201169
78.39938,-0.0003200001
78.49937,-0.000319791
78.59937,-0.0003196385
78.69937,-0.0003196489
78.79937,-0.0003194285
78.89937,-0.0003192448
78.99937,-0.0003190857
79.09937,-0.0003189689
79.19936,-0.0003187815
79.29936,-0.000318774
79.39936,-0.0003185103
79.49936,-0.0003182768
79.59936,-0.0003181995
79.69936,-0.0003179546
79.79935,-0.0003177588
79.89935,-0.0003176138
79.99935,-0.0003175064
80.09935,-0.0003173793
80.19935,-0.0003172559
80.29935,-0.0003170619
80.39935,-0.0003167963
80.49934,-0.0003166005
80.59934,-0.0003165515
80.69934,-0.0003164309
80.79934,-0.0003162944
80.89934,-0.0003160552
80.99934,-0.0003159686
81.09933,-0.0003157058
81.19933,-0.0003155768
81.29933,-0.0003155288
81.39933,-0.0003152726
81.49933,-0.0003151257
81.59933,-0.0003150438
81.69933,-0.0003148046
81.79932,-0.000314701
81.89932,-0.0003145936
81.99932,-0.0003142923
82.09932,-0.0003142094
82.19932,-0.0003141086
82.29932,-0.0003138346
82.39931,-0.0003137348
82.49931,-0.0003136114
82.59931,-0.0003133336
82.69931,-0.0003132545
82.79931,-0.0003131603
82.89931,-0.0003129004
82.99931,-0.0003127299
83.0993,-0.0003126358
83.1993,-0.0003124135
83.2993,-0.0003123137
83.3993,-0.0003121574
83.4993,-0.0003119841
83.5993,-0.0003118071
83.6993,-0.0003116799
83.79929,-0.0003115057
83.89929,-0.0003113173
83.99929,-0.0003112533
84.09929,-0.0003110311
84.19929,-0.0003109143
84.29929,-0.0003107071
84.39928,-0.0003105997
84.49928,-0.0003104444
84.59928,-0.0003102701
84.69928,-0.0003101449
84.79928,-0.0003099697
84.89928,-0.0003097927
84.99928,-0.0003096486
85.09927,-0.0003094377
85.19927,-0.0003093538
85.29927,-0.0003091758
85.39927,-0.0003090026
85.49927,-0.0003089395
85.59927,-0.0003088519
85.69926,-0.0003085816
85.79926,-0.0003084394
85.89926,-0.0003083038
85.99926,-0.0003080957
86.09926,-0.0003080138
86.19926,-0.0003079007
86.29926,-0.000307605
86.39925,-0.0003075156
86.49925,-0.0003074289
86.59925,-0.000307234
86.69925,-0.0003071012
86.79925,-0.0003070004
86.89925,-0.0003068263
86.99924,-0.0003066708
87.09924,-0.0003065447
87.19924,-0.0003063733
87.29924,-0.0003062273
87.39924,-0.0003060493
87.49924,-0.0003058741
87.59924,-0.0003057978
87.69923,-0.0003055954
87.79923,-0.000305504
87.89923,-0.0003053383
87.99923,-0.0003051151
88.09923,-0.0003050388
88.19923,-0.0003048721
88.29922,-0.000304712
88.39922,-0.0003046094
88.49922,-0.0003044955
88.59922,-0.0003042798
88.69922,-0.0003042092
88.79922,-0.0003040726
88.89922,-0.0003038635
88.99921,-0.000303825
89.09921,-0.0003036206
89.19921,-0.0003034755
89.29921,-0.0003033126
89.39921,-0.0003031111
89.49921,-0.0003029821
89.59921,-0.0003028719
89.6992,-0.0003026676
89.7992,-0.000302563
89.8992,-0.0003024839
89.9992,-0.0003023201
90.0992,-0.0003022315
90.1992,-0.0003021025
90.29919,-0.000301916
90.39919,-0.000301885
90.49919,-0.0003016806
90.59919,-0.0003014687
90.69919,-0.0003013962
90.79919,-0.0003012107
90.89919,-0.0003010901
90.99918,-0.0003010214
91.09918,-0.0003008397
91.19918,-0.0003006306
91.29918,-0.0003005948
91.39918,-0.0003003386
91.49918,-0.0003002078
91.59917,-0.0003001267
91.69917,-0.0002998612
91.79917,-0.0002998009
91.89917,-0.0002998555
91.99917,-0.0002996954
92.09917,-0.0002995109
92.19917,-0.0002994242
92.29916,-0.000299363
92.39916,-0.0002991106
92.49916,-0.0002989147
92.59916,-0.0002987302
92.69916,-0.0002985663
92.79916,-0.0002984599
92.89915,-0.0002983148
92.99915,-0.0002981783
93.09915,-0.0002980502
93.19915,-0.0002978788
93.29915,-0.000297746
93.39915,-0.0002975596
93.49915,-0.0002974372
93.59914,-0.0002973609
93.69914,-0.000297181
93.79914,-0.0002971848
93.89914,-0.0002969371
93.99914,-0.0002966856
94.09914,-0.000296616
94.19913,-0.0002965322
94.29913,-0.0002962854
94.39913,-0.0002961931
94.49913,-0.0002960754
94.59913,-0.0002958805
94.69913,-0.0002958456
94.79913,-0.0002957345
94.89912,-0.0002954699
94.99912,-0.0002954727
95.09912,-0.0002953851
95.19912,-0.0002952156
95.29912,-0.0002949576
95.39912,-0.0002948097
95.49911,-0.0002946741
95.59911,-0.0002945527
95.69911,-0.000294401
95.79911,-0.0002942456
95.89911,-0.0002940742
95.99911,-0.0002939744
96.09911,-0.0002938388
96.1991,-0.0002936919
96.2991,-0.0002935883
96.3991,-0.0002935073
96.4991,-0.0002933039
96.5991,-0.0002931448
96.6991,-0.0002930148
96.7991,-0.0002928349
96.89909,-0.0002928123
96.99909,-0.000292689
97.09909,-0.0002924215
97.19909,-0.0002923264
97.29909,-0.0002922435
97.39909,-0.0002921333
97.49908,-0.0002920043
97.59908,-0.0002918329
97.69908,-0.0002916098
97.79908,-0.0002915485
97.89908,-0.0002913847
97.99908,-0.0002912161
98.09908,-0.0002911002
98.19907,-0.0002909731
98.29907,-0.0002907876
98.39907,-0.0002907019
98.49907,-0.0002905861
98.59907,-0.000290377
98.69907,-0.0002903054
98.79906,-0.0002901962
98.89906,-0.000289989
98.99906,-0.0002898534
99.09906,-0.0002897809
99.19906,-0.0002895728
99.29906,-0.0002895088
99.39906,-0.0002893298
99.49905,-0.0002891951
99.59905,-0.0002891998
99.69905,-0.0002889946
99.79905,-0.0002887892
99.89905,-0.0002886697
99.99905,-0.0002885105
100.099,-0.0002883805
100.199,-0.0002883033
100.299,-0.0002880651
100.399,-0.0002879756
100.499,-0.0002878956
100.599,-0.0002878042
100.699,-0.0002876347
100.799,-0.0002874011
100.899,-0.0002873088
100.999,-0.0002871798
101.099,-0.0002870452
101.199,-0.0002869839
101.299,-0.0002868785
101.399,-0.0002866713
101.499,-0.0002866214
101.599,-0.000286547
101.699,-0.0002863059
101.799,-0.0002861948
101.899,-0.000286094
101.999,-0.0002859537
102.099,-0.0002859189
102.199,-0.0002857022
102.299,-0.0002854527
102.399,-0.0002853896
102.499,-0.0002852653
102.599,-0.000285173
102.699,-0.0002850562
102.799,-0.000284914
102.899,-0.0002847257
102.999,-0.0002846645
103.099,-0.0002844902
103.199,-0.0002843537
103.299,-0.0002842624
103.399,-0.0002841305
103.499,-0.0002840646
103.599,-0.0002840213
103.699,-0.0002839224
103.799,-0.0002838574
103.899,-0.0002836889
103.999,-0.0002835702
104.099,-0.0002833997
104.199,-0.000283185
104.299,-0.0002830447
104.399,-0.000282926
104.499,-0.0002828215
104.599,-0.0002827179
104.699,-0.000282587
104.799,-0.0002823516
104.899,-0.0002822037
104.999,-0.0002822065
105.099,-0.0002820295
105.199,-0.000281843
105.299,-0.0002817291
105.399,-0.0002815859
105.499,-0.0002814268
105.599,-0.0002813392
105.699,-0.0002811904
105.799,-0.0002810002
105.899,-0.0002809418
105.999,-0.0002807487
106.099,-0.0002806112
106.199,-0.0002805463
106.299,-0.0002803852
106.3989,-0.0002802205
106.4989,-0.0002800782
106.5989,-0.0002799492
106.6989,-0.0002798569
106.7989,-0.0002797307
106.8989,-0.0002796573
106.9989,-0.0002796432
107.0989,-0.0002793851
107.1989,-0.0002792712
107.2989,-0.000279161
107.3989,-0.0002790348
107.4989,-0.0002788653
107.5989,-0.0002787409
107.6989,-0.0002785394
107.7989,-0.0002783605
107.8989,-0.0002782701
107.9989,-0.0002782061
108.0989,-0.0002779989
108.1989,-0.0002779255
108.2989,-0.0002777588
108.3989,-0.0002776486
108.4989,-0.0002775337
108.5989,-0.0002774263
108.6989,-0.0002773331
108.7989,-0.0002771457
108.8989,-0.0002770138
108.9989,-0.0002768688
109.0989,-0.000276753
109.1989,-0.0002766334
109.2989,-0.0002765496
109.3989,-0.0002764196
109.4989,-0.0002762492
109.5989,-0.0002761625
109.6989,-0.0002760203
109.7989,-0.0002759195
109.8989,-0.0002758112
109.9989,-0.0002756587
110.0989,-0.0002755052
110.1989,-0.0002754176
110.2989,-0.0002752641
110.3989,-0.0002751878
110.4989,-0.0002750447
110.5989,-0.000274894
110.6989,-0.0002747838
110.7989,-0.0002746331
110.8989,-0.0002744957
110.9989,-0.0002744043
111.0989,-0.00027428
111.1989,-0.0002740738
111.2989,-0.000274069
111.3989,-0.0002739212
111.4989,-0.0002737413
111.5989,-0.0002736198
111.6989,-0.000273503
111.7989,-0.0002733995
111.8989,-0.0002733656
111.9989,-0.0002731424
112.0989,-0.0002730727
112.1989,-0.0002732102
112.2989,-0.0002730002
112.3989,-0.0002727779
112.4989,-0.0002726489
112.5989,-0.0002725218
112.6989,-0.0002723815
112.7989,-0.0002722581
112.8988,-0.0002720641
112.9988,-0.00027192
113.0988,-0.0002718578
113.1988,-0.0002717458
113.2988,-0.0002716017
113.3988,-0.0002714708
113.4988,-0.000271354
113.5988,-0.0002712476
113.6988,-0.0002711308
113.7988,-0.000271031
113.8988,-0.0002709114
113.9988,-0.0002707287
114.0988,-0.0002707381
114.1988,-0.0002705987
114.2988,-0.00027032
114.3988,-0.0002702004
114.4988,-0.0002701467
114.5988,-0.0002699941
114.6988,-0.0002699028
114.7988,-0.0002697926
114.8988,-0.0002696071
114.9988,-0.0002695327
115.0988,-0.0002694715
115.1988,-0.0002692766
115.2988,-0.0002692502
115.3988,-0.0002691504
115.4988,-0.0002689639
115.5988,-0.0002689121
115.6988,-0.0002687756
115.7988,-0.0002685806
115.8988,-0.0002685458
115.9988,-0.0002684272
116.0988,-0.0002682746
116.1988,-0.0002681568
116.2988,-0.0002680579
116.3988,-0.0002679045
116.4988,-0.0002677529
116.5988,-0.0002676832
116.6988,-0.0002674976
116.7988,-0.0002674496
116.8988,-0.000267298
116.9988,-0.0002671709
117.0988,-0.0002671106
117.1988,-0.0002669382
117.2988,-0.0002667763
117.3988,-0.000266732
117.4988,-0.00026657
117.5988,-0.0002664325
117.6988,-0.0002663365
117.7988,-0.0002662546
117.8988,-0.0002661274
117.9988,-0.000265989
118.0988,-0.0002658958
118.1988,-0.000265763
118.2988,-0.0002656085
118.3988,-0.0002655181
118.4988,-0.0002654362
118.5988,-0.00026531
118.6988,-0.0002652224
118.7988,-0.0002651311
118.8988,-0.0002649474
118.9988,-0.0002648975
119.0988,-0.0002647562
119.1988,-0.0002645585
119.2988,-0.0002645105
119.3988,-0.0002643777
119.4987,-0.0002642025
119.5987,-0.0002641941
119.6987,-0.0002640264
119.7987,-0.0002638042
119.8987,-0.0002637948
119.9987,-0.0002636526
120.0987,-0.0002634642
120.1987,-0.0002633945
120.2987,-0.0002633013
120.3987,-0.0002630951
120.4987,-0.0002630819
120.5987,-0.0002628954
120.6987,-0.0002627438
120.7987,-0.0002626939
120.8987,-0.0002625611
120.9987,-0.0002623963
121.0987,-0.0002622993
121.1987,-0.0002621769
121.2987,-0.0002620346
121.3987,-0.0002620007
121.4987,-0.0002617983
121.5987,-0.0002617182
121.6987,-0.0002617616
121.7987,-0.0002615101
121.8987,-0.000261382
121.9987,-0.0002613048
122.0987,-0.0002611928
122.1987,-0.0002610261
122.2987,-0.0002609912
122.3987,-0.0002607859
122.4987,-0.0002607106
122.5987,-0.0002606465
122.6987,-0.0002604874
122.7987,-0.0002603782
122.8987,-0.0002602642
122.9987,-0.0002601333
123.0987,-0.000260009
123.1987,-0.0002599732
123.2987,-0.0002598197
123.3987,-0.000259702
123.4987,-0.0002596125
123.5987,-0.0002595183
123.6987,-0.0002594148
123.7987,-0.0002592801
123.8987,-0.0002592095
123.9987,-0.0002590569
124.0987,-0.0002589232
124.1987,-0.0002587801
124.2987,-0.0002586604
124.3987,-0.0002585814
124.4987,-0.0002585691
124.5987,-0.0002584646
124.6987,-0.0002582715
124.7987,-0.0002581557
124.8987,-0.0002580803
124.9987,-0.0002578854
125.0987,-0.0002577488
125.1987,-0.0002576631
125.2987,-0.0002575765
125.3987,-0.000257439
125.4987,-0.0002573344
125.5987,-0.000257197
125.6987,-0.0002570576
125.7987,-0.0002569945
125.8987,-0.0002568664
125.9986,-0.000256793
126.0986,-0.0002566555
126.1986,-0.0002565142
126.2986,-0.000256388
126.3986,-0.0002562656
126.4986,-0.0002561677
126.5986,-0.0002561159
126.6986,-0.0002559662
126.7986,-0.0002558127
126.8986,-0.0002557081
126.9986,-0.0002556111
127.0986,-0.0002554708
127.1986,-0.0002553973
127.2986,-0.0002552645
127.3986,-0.0002551393
127.4986,-0.0002551412
127.5986,-0.0002549717
127.6986,-0.0002548445
127.7986,-0.0002547636
127.8986,-0.0002546062
127.9986,-0.0002545262
128.0986,-0.0002544622
128.1986,-0.0002542936
128.2986,-0.0002542399
128.3986,-0.0002541335
128.4986,-0.0002539725
128.5986,-0.0002538491
128.6987,-0.0002537211
128.7987,-0.000253577
128.8987,-0.0002535167
128.9987,-0.0002534338
129.0987,-0.0002532756
129.1987,-0.0002531673
129.2987,-0.0002530637
129.3987,-0.0002529385
129.4987,-0.0002528424
129.5987,-0.0002527831
129.6987,-0.0002526701
129.7987,-0.0002525721
129.8987,-0.0002524187
129.9987,-0.0002523536
130.0987,-0.0002522218
130.1987,-0.0002520965
130.2988,-0.0002519506
130.3988,-0.0002518489
130.4988,-0.0002517434
130.5988,-0.0002516059
130.6988,-0.0002514873
130.7988,-0.0002513865
130.8988,-0.0002512519
130.9988,-0.0002511812
131.0988,-0.0002510428
131.1988,-0.0002509561
131.2988,-0.0002508469
131.3988,-0.0002507367
131.4988,-0.0002506425
131.5988,-0.000250587
131.6988,-0.0002503996
131.7988,-0.0002503252
131.8988,-0.0002502526
131.9989,-0.0002501236
132.0989,-0.0002499654
132.1989,-0.0002499249
132.2989,-0.0002497705
132.3989,-0.0002496113
132.4989,-0.0002495266
132.5989,-0.0002494004
132.6989,-0.0002492912
132.7989,-0.0002492441
132.8989,-0.0002491094
132.9989,-0.0002490105
133.0989,-0.0002488975
133.1989,-0.0002487459
133.2989,-0.0002486508
133.3989,-0.0002485773
133.4989,-0.0002483767
133.599,-0.0002483353
133.699,-0.0002482383
133.799,-0.0002480565
133.899,-0.0002479774
133.999,-0.0002478663
134.099,-0.0002477072
134.199,-0.0002476704
134.299,-0.0002475876
134.399,-0.0002474425
134.499,-0.0002473625
134.599,-0.0002472495
134.699,-0.0002471101
134.799,-0.0002471148
134.899,-0.000246967
134.999,-0.0002467457
135.099,-0.0002467306
135.1991,-0.0002465874
135.2991,-0.0002464546
135.3991,-0.0002464066
135.4991,-0.0002462428
135.5991,-0.000246142
135.6991,-0.0002461674
135.7991,-0.0002460101
135.8991,-0.0002458246
135.9991,-0.0002456928
136.0991,-0.0002456193
136.1991,-0.0002454715
136.2991,-0.0002454084
136.3991,-0.0002452502
136.4991,-0.0002451212
136.5991,-0.0002450637
136.6991,-0.0002449997
136.7991,-0.0002449055
136.8992,-0.0002447567
136.9992,-0.0002446117
137.0992,-0.0002445505
137.1992,-0.0002444525
137.2992,-0.0002443584
137.3992,-0.0002442265
137.4992,-0.0002441399
137.5992,-0.0002440062
137.6992,-0.0002439073
137.7992,-0.0002438724
137.8992,-0.0002436634
137.9992,-0.0002436238
138.0992,-0.0002434872
138.1992,-0.0002433272
138.2992,-0.0002432763
138.3992,-0.0002431925
138.4993,-0.0002430541
138.5993,-0.0002429392
138.6993,-0.0002428394
138.7993,-0.0002427339
138.8993,-0.0002426425
138.9993,-0.0002424947
139.0993,-0.0002423779
139.1993,-0.0002423063
139.2993,-0.0002421999
139.3993,-0.0002421462
139.4993,-0.0002420417
139.5993,-0.0002419164
139.6993,-0.000241843
139.7993,-0.0002416697
139.8993,-0.0002416142
139.9993,-0.0002416217
140.0993,-0.0002414757
140.1994,-0.0002412638
140.2994,-0.000241213
140.3994,-0.0002411009
140.4994,-0.0002410133
140.5994,-0.0002409465
140.6994,-0.0002407732
140.7994,-0.0002407101
140.8994,-0.0002407836
140.9994,-0.0002406244
141.0994,-0.0002404822
141.1994,-0.0002403456
141.2994,-0.0002402552
141.3994,-0.0002401714
141.4994,-0.0002401112
141.5994,-0.0002400255
141.6994,-0.00023992
141.7995,-0.0002398418
141.8995,-0.0002397298
141.9995,-0.0002396441
142.0995,-0.0002395452
142.1995,-0.0002394397
142.2995,-0.0002393785
142.3995,-0.0002393681
142.4995,-0.0002392137
142.5995,-0.0002390621
142.6995,-0.000238999
142.7995,-0.0002388238
142.8995,-0.0002387108
142.9995,-0.0002386373
143.0995,-0.0002384829
143.1995,-0.0002383963
143.2995,-0.0002382861
143.3996,-0.0002381712
143.4996,-0.0002381514
143.5996,-0.0002380214
143.6996,-0.0002378924
143.7996,-0.0002377907
143.8996,-0.0002377097
143.9996,-0.0002376334
144.0996,-0.0002374498
144.1996,-0.0002374093
144.2996,-0.0002373632
144.3996,-0.0002372709
144.4996,-0.0002371635
144.5996,-0.0002370477
144.6996,-0.0002369987
144.7996,-0.0002369074
144.8996,-0.0002367482
144.9996,-0.0002365957
145.0997,-0.0002364601
145.1997,-0.0002364045
145.2997,-0.0002363188
145.3997,-0.0002362171
145.4997,-0.0002361135
145.5997,-0.0002359845
145.6997,-0.0002358969
145.7997,-0.0002358253
145.8997,-0.0002356144
145.9997,-0.0002356097
146.0997,-0.0002355541
146.1997,-0.0002353658
146.2997,-0.0002353102
146.3997,-0.0002352132
146.4997,-0.0002351322
146.5997,-0.0002350456
146.6998,-0.0002349373
146.7998,-0.0002347875
146.8998,-0.0002346613
146.9998,-0.0002346604
147.0998,-0.0002344947
147.1998,-0.0002343252
147.2998,-0.0002342903
147.3998,-0.0002341924
147.4998,-0.000234037
147.5998,-0.0002339475
147.6998,-0.0002338194
147.7998,-0.0002337206
147.8998,-0.0002336631
147.9998,-0.0002335341
148.0998,-0.0002334192
148.1998,-0.0002333514
148.2999,-0.000233277
148.3999,-0.0002331696
148.4999,-0.0002330435
148.5999,-0.0002329606
148.6999,-0.0002328909
148.7999,-0.0002328702
148.8999,-0.0002326809
148.9999,-0.0002326366
149.0999,-0.0002326093
149.1999,-0.0002324539
149.2999,-0.0002323513
149.3999,-0.0002322684
149.4999,-0.0002321385
149.5999,-0.0002320226
149.6999,-0.0002319303
149.7999,-0.0002318013
149.8999,-0.0002316695
150,-0.0002315555
150.1,-0.0002314717
150.2,-0.0002313738
150.3,-0.0002312871
150.4,-0.000231161
150.5,-0.0002310762
150.6,-0.0002309933
150.7,-0.0002309198
150.8,-0.0002308059
150.9,-0.0002306967
151,-0.0002307033
151.1,-0.0002305271
151.2,-0.0002304593
151.3,-0.0002304301
151.4,-0.000230272
151.5,-0.0002301194
151.6001,-0.0002300111
151.7001,-0.0002299518
151.8001,-0.000229867
151.9001,-0.0002297305
152.0001,-0.0002296494
152.1001,-0.0002295864
152.2001,-0.0002295477
152.3001,-0.0002294357
152.4001,-0.0002293622
152.5001,-0.0002292765
152.6001,-0.0002291296
152.7001,-0.0002290373
152.8001,-0.0002289611
152.9001,-0.0002288594
153.0001,-0.0002287256
153.1001,-0.0002286239
153.2001,-0.0002285429
153.3002,-0.0002284695
153.4002,-0.0002283828
153.5002,-0.0002283565
153.6002,-0.0002282764
153.7002,-0.000228138
153.8002,-0.0002281248
153.9002,-0.0002280071
154.0002,-0.0002278724
154.1002,-0.0002279242
154.2002,-0.0002278404
154.3002,-0.0002276746
154.4002,-0.0002275532
154.5002,-0.0002274449
154.6002,-0.0002272584
154.7002,-0.0002272386
154.8002,-0.0002271765
154.9003,-0.0002269938
155.0003,-0.0002269373
155.1003,-0.000226861
155.2003,-0.0002267075
155.3003,-0.0002266359
155.4003,-0.0002265436
155.5003,-0.000226392
155.6003,-0.0002263525
155.7003,-0.0002262395
155.8003,-0.0002260878
155.9003,-0.0002260445
156.0003,-0.00022594
156.1003,-0.0002257997
156.2003,-0.0002257403
156.3003,-0.0002256556
156.4003,-0.0002255576
156.5004,-0.0002254842
156.6004,-0.0002253542
156.7004,-0.0002252977
156.8004,-0.0002251847
156.9004,-0.0002250444
157.0004,-0.000224937
157.1004,-0.0002248711
157.2004,-0.0002247873
157.3004,-0.000224662
157.4004,-0.0002246018
157.5004,-0.0002244699
157.6004,-0.0002243842
157.7004,-0.0002242797
157.8004,-0.0002241441
157.9004,-0.000224048
158.0004,-0.0002239501
158.1004,-0.0002238748
158.2005,-0.0002237787
158.3005,-0.0002236581
158.4005,-0.000223564
158.5005,-0.0002234934
158.6005,-0.0002234124
158.7005,-0.0002233587
158.8005,-0.0002232391
158.9005,-0.0002231091
159.0005,-0.0002230611
159.1005,-0.0002229566
159.2005,-0.0002227889
159.3005,-0.0002226825
159.4005,-0.0002226241
159.5005,-0.0002225356
159.6005,-0.0002224339
159.7005,-0.0002223445
159.8006,-0.0002222352
159.9006,-0.0002221655
160.0006,-0.0002221128
160.1006,-0.0002219753
160.2006,-0.0002219
160.3006,-0.0002218171
160.4006,-0.0002216899
160.5006,-0.0002216297
160.6006,-0.0002215506
160.7006,-0.0002214357
160.8006,-0.0002213688
160.9006,-0.0002212539
161.0006,-0.0002211117
161.1006,-0.0002210194
161.2006,-0.0002209526
161.3006,-0.000220833
161.4007,-0.0002207557
161.5007,-0.0002206578
161.6007,-0.0002206041
161.7007,-0.0002205231
161.8007,-0.0002203988
161.9007,-0.0002203009
162.0007,-0.0002202397
162.1007,-0.0002201088
162.2007,-0.0002200485
162.3007,-0.000219975
162.4007,-0.0002198903
162.5007,-0.0002197613
162.6007,-0.0002196671
162.7007,-0.0002195663
162.8007,-0.0002194769
162.9007,-0.0002193808
163.0007,-0.0002191925
163.1008,-0.0002191576
163.2008,-0.0002190814
163.3008,-0.0002189448
163.4008,-0.000218909
163.5008,-0.0002188167
163.6008,-0.0002187056
163.7008,-0.0002186039
163.8008,-0.0002185643
163.9008,-0.000218457
164.0008,-0.0002183609
164.1008,-0.0002183025
164.2008,-0.000218182
164.3008,-0.0002180888
164.4008,-0.0002180031
164.5008,-0.0002179202
164.6008,-0.0002178411
164.7009,-0.0002177366
164.8009,-0.0002176499
164.9009,-0.0002175868
165.0009,-0.0002174861
165.1009,-0.0002173909
165.2009,-0.0002173401
165.3009,-0.0002172158
165.4009,-0.0002171404
165.5009,-0.0002170265
165.6009,-0.0002168899
165.7009,-0.0002168353
165.8009,-0.0002167383
165.9009,-0.0002166357
166.0009,-0.0002165274
166.1009,-0.0002164624
166.2009,-0.0002163277
166.3009,-0.0002162976
166.401,-0.0002162081
166.501,-0.000216064
166.601,-0.0002160151
166.701,-0.0002159256
166.801,-0.0002157909
166.901,-0.0002157438
167.001,-0.0002156666
167.101,-0.0002155367
167.201,-0.0002154717
167.301,-0.0002153888
167.401,-0.0002152739
167.501,-0.0002152466
167.601,-0.0002151468
167.701,-0.0002150197
167.801,-0.0002149358
167.901,-0.0002148511
168.0011,-0.0002147701
168.1011,-0.000214707
168.2011,-0.0002146025
168.3011,-0.0002144932
168.4011,-0.0002144537
168.5011,-0.0002143567
168.6011,-0.000214254
168.7011,-0.0002141599
168.8011,-0.0002140544
168.9011,-0.0002139612
169.0011,-0.0002138839
169.1011,-0.0002138067
169.2011,-0.0002137003
169.3011,-0.0002136532
169.4011,-0.0002135364
169.5011,-0.0002134253
169.6012,-0.0002133829
169.7012,-0.0002132954
169.8012,-0.0002131588
169.9012,-0.0002130703
170.0012,-0.0002129949
170.1012,-0.0002128989
170.2012,-0.0002128396
170.3012,-0.0002127115
170.4012,-0.0002126117
170.5012,-0.0002125589
170.6012,-0.0002124393
170.7012,-0.0002123724
170.8012,-0.0002123263
170.9012,-0.0002122067
171.0012,-0.0002120956
171.1012,-0.0002120231
171.2012,-0.0002119374
171.3013,-0.0002118526
171.4013,-0.0002117679
171.5013,-0.0002116671
171.6013,-0.0002115946
171.7013,-0.0002115239
171.8013,-0.0002114392
171.9013,-0.0002113356
172.0013,-0.0002112198
172.1013,-0.0002111652
172.2013,-0.0002110879
172.3013,-0.0002109919
172.4013,-0.0002109166
172.5013,-0.0002108356
172.6013,-0.0002108016
172.7013,-0.0002107075
172.8013,-0.0002105662
172.9014,-0.0002104796
173.0014,-0.0002103694
173.1014,-0.0002103543
173.2014,-0.0002101942
173.3014,-0.0002101264
173.4014,-0.0002100803
173.5014,-0.0002099805
173.6014,-0.0002098759
173.7014,-0.0002097808
173.8014,-0.0002096565
173.9014,-0.0002096056
174.0014,-0.0002095143
174.1014,-0.0002094248
174.2014,-0.0002093382
174.3014,-0.0002092553
174.4014,-0.0002091988
174.5014,-0.0002091056
174.6015,-0.0002089709
174.7015,-0.000208904
174.8015,-0.0002088316
174.9015,-0.0002087185
175.0015,-0.0002085914
175.1015,-0.0002085594
175.2015,-0.0002084888
175.3015,-0.0002083776
175.4015,-0.0002083155
175.5015,-0.0002082175
175.6015,-0.0002081074
175.7015,-0.0002080414
175.8015,-0.0002079651
175.9015,-0.0002078305
176.0015,-0.0002077881
176.1015,-0.0002076911
176.2016,-0.0002075847
176.3016,-0.0002075235
176.4016,-0.0002074293
176.5016,-0.0002073455
176.6016,-0.0002072278
176.7016,-0.0002071637
176.8016,-0.0002070912
176.9016,-0.0002069801
177.0016,-0.0002069227
177.1016,-0.0002068671
177.2016,-0.0002067701
177.3016,-0.0002067183
177.4016,-0.0002066326
177.5016,-0.0002064857
177.6016,-0.0002064179
177.7016,-0.0002063369
177.8017,-0.0002061796
177.9017,-0.0002061231
178.0017,-0.0002060798
178.1017,-0.0002060233
178.2017,-0.0002058849
178.3017,-0.0002058284
178.4017,-0.0002056796
178.5017,-0.0002056014
178.6017,-0.0002055619
178.7017,-0.0002054554
178.8017,-0.0002053716
178.9017,-0.0002052887
179.0017,-0.0002051814
179.1017,-0.0002051352
179.2017,-0.0002050609
179.3017,-0.0002049516
179.4017,-0.0002049384
179.5018,-0.0002048979
179.6018,-0.0002047868
179.7018,-0.0002046314
179.8018,-0.0002045128
179.9018,-0.0002044506
180.0018,-0.0002044167
180.1018,-0.0002043235
180.2018,-0.0002042086
180.3018,-0.0002041219
180.4018,-0.0002040485
180.5018,-0.0002039637
180.6018,-0.0002038931
180.7018,-0.0002038036
180.8018,-0.0002036972
180.9018,-0.0002036256
181.0018,-0.0002035757
181.1019,-0.0002034929
181.2019,-0.0002034166
181.3019,-0.0002033422
181.4019,-0.0002032085
181.5019,-0.0002031812
181.6019,-0.0002030672
181.7019,-0.0002029787
181.8019,-0.0002029316
181.9019,-0.0002028478
182.0019,-0.0002027611
182.1019,-0.0002026764
182.2019,-0.0002025794
182.3019,-0.0002025097
182.4019,-0.0002024287
182.5019,-0.0002023816
182.6019,-0.000202263
182.702,-0.0002021509
182.802,-0.0002020963
182.902,-0.0002020002
183.002,-0.0002019023
183.102,-0.0002018514
183.202,-0.0002017864
183.302,-0.0002016782
183.402,-0.0002016132
183.502,-0.0002015331
183.602,-0.0002014503
183.702,-0.0002013966
183.802,-0.0002013664
183.902,-0.0002012214
184.002,-0.0002011498
184.102,-0.0002010604
184.202,-0.0002009718
184.302,-0.0002008777
184.4021,-0.000200744
184.5021,-0.0002006875
184.6021,-0.0002006545
184.7021,-0.0002005189
184.8021,-0.0002004407
184.9021,-0.0002003503
185.0021,-0.000200275
185.1021,-0.0002001996
185.2021,-0.0002001441
185.3021,-0.0002000386
185.4021,-0.0001999246
185.5021,-0.0001998747
185.6021,-0.0001998098
185.7021,-0.0001996779
185.8021,-0.0001996346
185.9021,-0.000199515
186.0022,-0.0001994237
186.1022,-0.000199354
186.2022,-0.0001992796
186.3022,-0.0001992108
186.4022,-0.000199111
186.5022,-0.000199046
186.6022,-0.0001989641
186.7022,-0.0001988727
186.8022,-0.000198788
186.9022,-0.0001987324
187.0022,-0.0001986608
187.1022,-0.0001985648
187.2022,-0.0001985205
187.3022,-0.0001984358
187.4022,-0.0001983764
187.5022,-0.0001982616
187.6022,-0.0001981919
187.7023,-0.0001981382
187.8023,-0.0001980299
187.9023,-0.0001980101
188.0023,-0.0001980741
188.1023,-0.0001979225
188.2023,-0.0001978076
188.3023,-0.0001977342
188.4023,-0.0001976193
188.5023,-0.0001975044
188.6023,-0.0001974733
188.7023,-0.0001973405
188.8023,-0.0001972247
188.9023,-0.0001971578
189.0023,-0.0001971117
189.1023,-0.0001970109
189.2023,-0.0001969365
189.3024,-0.0001968508
189.4024,-0.0001968339
189.5024,-0.0001967981
189.6024,-0.0001966644
189.7024,-0.0001965241
189.8024,-0.0001964958
189.9024,-0.0001964139
190.0024,-0.0001963263
190.1024,-0.0001962632
190.2024,-0.000196153
190.3024,-0.0001960871
190.4024,-0.0001960344
190.5024,-0.000195911
190.6024,-0.0001958375
190.7024,-0.0001958366
190.8024,-0.0001957208
190.9025,-0.0001956313
191.0025,-0.0001955701
191.1025,-0.0001955136
191.2025,-0.000195394
191.3025,-0.0001953186
191.4025,-0.0001952433
191.5025,-0.0001951077
191.6025,-0.0001950295
191.7025,-0.000194957
191.8025,-0.0001948591
191.9025,-0.0001948148
192.0025,-0.0001947169
192.1025,-0.0001946265
192.2025,-0.0001945464
192.3025,-0.0001944598
192.4025,-0.0001943778
192.5025,-0.0001943242
192.6026,-0.0001941989
192.7026,-0.0001941151
192.8026,-0.0001940746
192.9026,-0.0001939786
193.0026,-0.0001939258
193.1026,-0.0001938043
193.2026,-0.0001936951
193.3026,-0.0001936461
193.4026,-0.0001935454
193.5026,-0.0001935001
193.6026,-0.0001934145
193.7026,-0.0001932958
193.8026,-0.0001932365
193.9026,-0.0001931941
194.0026,-0.0001931169
194.1026,-0.000193098
194.2027,-0.0001930133
194.3027,-0.0001929154
194.4027,-0.0001928513
194.5027,-0.0001927854
194.6027,-0.0001926564
194.7027,-0.0001925622
194.8027,-0.0001924708
194.9027,-0.00019242
195.0027,-0.0001923428
195.1027,-0.0001922571
195.2027,-0.0001921695
195.3027,-0.0001921111
195.4027,-0.0001920047
195.5027,-0.0001919341
195.6027,-0.0001918653
195.7027,-0.000191757
195.8027,-0.0001916779
195.9028,-0.0001916393
196.0028,-0.0001915706
196.1028,-0.0001914623
196.2028,-0.000191401
196.3028,-0.0001913276
196.4028,-0.0001912475
196.5028,-0.0001911515
196.6028,-0.0001910903
196.7028,-0.0001910225
196.8028,-0.0001909763
196.9028,-0.0001908417
197.0028,-0.0001907965
197.1028,-0.0001907738
197.2028,-0.0001906618
197.3028,-0.0001905685
197.4028,-0.0001904979
197.5029,-0.0001904452
197.6029,-0.0001903312
197.7029,-0.000190255
197.8029,-0.0001901542
197.9029,-0.0001900704
198.0029,-0.0001899979
198.1029,-0.0001899084
198.2029,-0.0001898321
198.3029,-0.0001897436
198.4029,-0.0001896758
198.5029,-0.0001896164
198.6029,-0.000189527
198.7029,-0.0001894357
198.8029,-0.0001893782
198.9029,-0.0001892944
199.0029,-0.0001892275
199.103,-0.0001891616
199.203,-0.0001890571
199.303,-0.0001889704
199.403,-0.0001888894
199.503,-0.0001888198
199.603,-0.0001887246
199.703,-0.0001886785
199.803,-0.0001885918
199.903,-0.0001885099
200.003,-0.0001884666
200.103,-0.0001883677
200.203,-0.000188282
200.303,-0.0001882114
200.403,-0.0001881408
200.503,-0.0001880588
200.603,-0.0001880099
200.703,-0.0001879468
200.8031,-0.0001878422
200.9031,-0.0001877745
201.0031,-0.0001877104
201.1031,-0.0001876275
201.2031,-0.0001875522
201.3031,-0.000187475
201.4031,-0.0001873893
201.5031,-0.0001873337
201.6031,-0.0001872687
201.7031,-0.0001871604
201.8031,-0.0001870851
201.9031,-0.0001870088
202.0031,-0.0001869598
202.1031,-0.0001869014
202.2031,-0.000186796
202.3031,-0.0001867545
202.4032,-0.0001867009
202.5032,-0.0001865897
202.6032,-0.0001865219
202.7032,-0.00018644
202.8032,-0.0001863411
202.9032,-0.0001862931
203.0032,-0.0001862017
203.1032,-0.0001861085
203.2032,-0.0001860944
203.3032,-0.0001860228
203.4032,-0.0001859239
203.5032,-0.0001859192
203.6032,-0.000185809
203.7032,-0.0001856904
203.8032,-0.0001856075
203.9032,-0.000185518
204.0033,-0.0001854173
204.1033,-0.0001853768
204.2033,-0.0001853033
204.3033,-0.0001852129
204.4033,-0.0001851451
204.5033,-0.0001850641
204.6033,-0.0001850067
204.7033,-0.0001849596
204.8033,-0.0001848918
204.9033,-0.0001847807
205.0033,-0.000184727
205.1033,-0.0001846404
205.2033,-0.0001845744
205.3033,-0.0001845047
205.4033,-0.0001843851
205.5033,-0.0001843446
205.6033,-0.0001843079
205.7034,-0.0001841846
205.8034,-0.0001841083
205.9034,-0.0001840339
206.0034,-0.0001839359
206.1034,-0.0001838879
206.2034,-0.0001837862
206.3034,-0.0001836939
206.4034,-0.0001836233
206.5034,-0.000183595
206.6034,-0.000183499
206.7034,-0.0001834472
206.8034,-0.0001833549
206.9034,-0.0001832635
207.0034,-0.0001832268
207.1034,-0.0001831411
207.2034,-0.0001830469
207.3035,-0.0001829886
207.4035,-0.000182901
207.5035,-0.0001828482
207.6035,-0.0001827729
207.7035,-0.0001826787
207.8035,-0.0001825959
207.9035,-0.0001825544
208.0035,-0.000182481
208.1035,-0.0001824103
208.2035,-0.0001823425
208.3035,-0.0001822323
208.4035,-0.000182173
208.5035,-0.0001821071
208.6035,-0.0001820421
208.7035,-0.000181947
208.8035,-0.0001819084
208.9035,-0.0001817832
209.0036,-0.0001817285
209.1036,-0.0001816673
209.2036,-0.0001815826
209.3036,-0.00018151
209.4036,-0.000181429
209.5036,-0.0001813405
209.6036,-0.0001812765
209.7036,-0.0001812209
209.8036,-0.0001811371
209.9036,-0.0001810797
210.0036,-0.0001809949
210.1036,-0.0001809036
210.2036,-0.0001808367
210.3036,-0.0001807595
210.4036,-0.0001806832
210.5036,-0.0001806361
210.6037,-0.000180558
210.7037,-0.0001804487
210.8037,-0.0001804101
210.9037,-0.0001803319
211.0037,-0.0001802425
211.1037,-0.0001801944
211.2037,-0.0001801021
211.3037,-0.000180007
211.4037,-0.0001799901
211.5037,-0.0001798997
211.6037,-0.0001798158
211.7037,-0.0001797763
211.8037,-0.0001796859
211.9037,-0.0001796407
212.0037,-0.0001795597
212.1037,-0.0001794533
212.2038,-0.0001793723
212.3038,-0.0001793309
212.4038,-0.0001792555
212.5038,-0.0001791604
212.6038,-0.0001791039
212.7038,-0.0001790191
212.8038,-0.0001789589
212.9038,-0.0001789401
213.0038,-0.000178908
213.1038,-0.000178828
213.2038,-0.0001787348
213.3038,-0.0001786764
213.4038,-0.0001785954
213.5038,-0.0001784842
213.6038,-0.0001784014
213.7038,-0.0001783279
213.8038,-0.0001782469
213.9039,-0.0001781895
214.0039,-0.0001781198
214.1039,-0.0001780398
214.2039,-0.000177956
214.3039,-0.0001778957
214.4039,-0.0001778345
214.5039,-0.0001777704
214.6039,-0.0001776725
214.7039,-0.0001776339
214.8039,-0.0001775595
214.9039,-0.0001774973
215.0039,-0.0001773937
215.1039,-0.0001773306
215.2039,-0.0001772826
215.3039,-0.0001772205
215.4039,-0.0001771414
215.504,-0.0001770679
215.604,-0.0001769813
215.704,-0.0001769342
215.804,-0.0001768626
215.904,-0.0001767637
216.004,-0.0001767063
216.104,-0.0001766582
216.204,-0.0001765433
216.304,-0.0001765123
216.404,-0.0001764256
216.504,-0.0001763559
216.604,-0.0001763154
216.704,-0.0001762288
216.804,-0.0001761365
216.904,-0.0001761111
217.004,-0.0001760132
217.104,-0.0001759275
217.2041,-0.0001758719
217.3041,-0.0001757994
217.4041,-0.0001757325
217.5041,-0.0001756619
217.6041,-0.0001755696
217.7041,-0.0001755206
217.8041,-0.0001754839
217.9041,-0.0001753756
218.0041,-0.0001752833
218.1041,-0.00017524
218.2041,-0.0001751534
218.3041,-0.0001750969
218.4041,-0.0001750432
218.5041,-0.0001749452
218.6041,-0.000174869
218.7041,-0.0001748435
218.8042,-0.0001747898
218.9042,-0.0001746928
219.0042,-0.0001746194
219.1042,-0.0001745525
219.2042,-0.0001744696
219.3042,-0.0001744018
219.4042,-0.000174334
219.5042,-0.000174238
219.6042,-0.0001741532
219.7042,-0.0001740967
219.8042,-0.0001740412
219.9042,-0.0001739828
220.0042,-0.0001739319
220.1042,-0.0001738509
220.2042,-0.0001737568
220.3042,-0.0001737238
220.4043,-0.0001736437
220.5043,-0.0001735825
220.6043,-0.0001735034
220.7043,-0.0001734206
220.8043,-0.0001733622
220.9043,-0.0001733038
221.0043,-0.0001732473
221.1043,-0.0001731512
221.2043,-0.0001730787
221.3043,-0.0001730194
221.4043,-0.0001729563
221.5043,-0.0001729054
221.6043,-0.0001727821
221.7043,-0.0001727661
221.8043,-0.0001727331
221.9043,-0.0001726163
222.0043,-0.0001725438
222.1044,-0.0001724534
222.2044,-0.0001723884
222.3044,-0.0001723178
222.4044,-0.0001722556
222.5044,-0.0001721624
222.6044,-0.0001721116
222.7044,-0.000172056
222.8044,-0.0001719628
222.9044,-0.0001718912
223.0044,-0.0001718724
223.1044,-0.0001717669
223.2044,-0.0001717
223.3044,-0.0001716379
223.4044,-0.0001715644
223.5044,-0.0001715041
223.6044,-0.0001714655
223.7045,-0.000171377
223.8045,-0.0001712781
223.9045,-0.0001712348
224.0045,-0.0001712075
224.1045,-0.0001711133
224.2045,-0.0001709909
224.3045,-0.0001709457
224.4045,-0.0001708882
224.5045,-0.0001708355
224.6045,-0.0001707489
224.7045,-0.0001706839
224.8045,-0.0001705878
224.9045,-0.0001705153
225.0045,-0.000170456
225.1045,-0.0001703675
225.2045,-0.0001702931
225.3046,-0.0001702243
225.4046,-0.0001701528
225.5046,-0.0001700802
225.6046,-0.0001700087
225.7046,-0.0001699427
225.8046,-0.0001698966
225.9046,-0.000169826
226.0046,-0.0001697318
226.1046,-0.0001696781
226.2046,-0.000169631
226.3046,-0.0001695595
226.4046,-0.0001694672
226.5046,-0.0001694078
226.6046,-0.0001693297
226.7046,-0.0001692939
226.8046,-0.0001692402
226.9046,-0.0001691639
227.0047,-0.0001690867
227.1047,-0.0001690264
227.2047,-0.0001689954
227.3047,-0.0001689323
227.4047,-0.0001688626
227.5047,-0.0001687637
227.6047,-0.000168695
227.7047,-0.0001686394
227.8047,-0.0001685838
227.9047,-0.000168516
228.0047,-0.0001684482
228.1047,-0.0001683522
228.2047,-0.0001683192
228.3047,-0.0001682618
228.4047,-0.0001681808
228.5047,-0.0001681205
228.6048,-0.0001680301
228.7048,-0.0001679453
228.8048,-0.0001679039
228.9048,-0.0001678587
229.0048,-0.0001677551
229.1048,-0.0001676835
229.2048,-0.000167595
229.3048,-0.0001675366
229.4048,-0.0001674867
229.5048,-0.0001674104
229.6048,-0.0001673115
229.7048,-0.0001672645
229.8048,-0.0001672183
229.9048,-0.0001671279
230.0048,-0.0001670686
230.1048,-0.0001670055
230.2048,-0.000166949
230.3049,-0.0001668991
230.4049,-0.0001667682
230.5049,-0.0001666825
230.6049,-0.0001666966
230.7049,-0.0001666118
230.8049,-0.0001665648
230.9049,-0.0001664668
231.0049,-0.0001663877
231.1049,-0.0001663171
231.2049,-0.0001662888
231.3049,-0.0001661758
231.4049,-0.0001660939
231.5049,-0.0001660534
231.6049,-0.0001659988
231.7049,-0.0001659357
231.8049,-0.0001658613
231.905,-0.0001657925
232.005,-0.0001657078
232.105,-0.0001656739
232.205,-0.0001656287
232.305,-0.000165526
232.405,-0.0001654902
232.505,-0.0001654045
232.605,-0.0001653584
232.705,-0.0001652944
232.805,-0.0001652285
232.905,-0.0001651493
233.005,-0.0001650778
233.105,-0.0001650401
233.205,-0.0001649582
233.305,-0.0001648565
233.405,-0.000164799
233.5051,-0.000164735
233.6051,-0.0001646832
233.7051,-0.0001646012
233.8051,-0.0001645768
233.9051,-0.0001644977
234.0051,-0.0001644346
234.1051,-0.0001643545
234.2051,-0.000164282
234.3051,-0.0001642481
234.4051,-0.000164185
234.5051,-0.0001640871
234.6051,-0.0001640372
234.7051,-0.0001639807
234.8051,-0.0001639006
234.9051,-0.0001638573
235.0051,-0.0001637866
235.1051,-0.0001636765
235.2052,-0.0001636614
235.3052,-0.0001635719
235.4052,-0.0001635079
235.5052,-0.0001634523
235.6052,-0.0001633949
235.7052,-0.0001632951
235.8052,-0.000163263
235.9052,-0.0001631999
236.0052,-0.0001631359
236.1052,-0.0001630879
236.2052,-0.0001629994
236.3052,-0.0001629344
236.4052,-0.0001629052
236.5052,-0.000162827
236.6052,-0.0001627272
236.7052,-0.0001626669
236.8053,-0.0001626311
236.9053,-0.0001625436
237.0053,-0.0001624823
237.1053,-0.0001624277
237.2053,-0.000162342
237.3053,-0.0001623317
237.4053,-0.0001622526
237.5053,-0.0001621735
237.6053,-0.0001620802
237.7053,-0.0001620529
237.8053,-0.0001619908
237.9053,-0.0001619164
238.0053,-0.0001618749
238.1053,-0.0001617836
238.2053,-0.0001617017
238.3053,-0.0001616404
238.4053,-0.0001615943
238.5054,-0.0001615425
238.6054,-0.0001614512
238.7054,-0.0001613881
238.8054,-0.0001613485
238.9054,-0.0001612854
239.0054,-0.0001612374
239.1054,-0.0001611555
239.2054,-0.0001610924
239.3054,-0.0001610114
239.4054,-0.0001609737
239.5054,-0.0001609115
239.6054,-0.0001608353
239.7054,-0.0001607825
239.8054,-0.0001607204
239.9054,-0.0001606836
240.0054,-0.0001605923
240.1055,-0.0001605292
240.2055,-0.0001604859
240.3055,-0.0001604284
240.4055,-0.0001603738
240.5055,-0.0001602636
240.6055,-0.0001602128
240.7055,-0.0001601817
240.8055,-0.0001600866
240.9055,-0.0001600433
241.0055,-0.0001600084
241.1055,-0.000159934
241.2055,-0.0001598643
241.3055,-0.0001598116
241.4055,-0.0001597316
241.5055,-0.0001596694
241.6055,-0.0001596251
241.7056,-0.000159547
241.8056,-0.0001594669
241.9056,-0.0001594048
242.0056,-0.0001593483
242.1056,-0.0001592776
242.2056,-0.0001592287
242.3056,-0.0001591524
242.4056,-0.0001591044
242.5056,-0.000159077
242.6056,-0.0001590102
242.7056,-0.000158933
242.8056,-0.0001588718
242.9056,-0.0001588058
243.0056,-0.0001587277
243.1056,-0.0001587003
243.2056,-0.0001586081
243.3056,-0.0001585214
243.4057,-0.000158496
243.5057,-0.0001584395
243.6057,-0.0001583623
243.7057,-0.0001582747
243.8057,-0.0001582248
243.9057,-0.0001581796
244.0057,-0.0001581127
244.1057,-0.0001580656
244.2057,-0.000157979
244.3057,-0.0001579187
244.4057,-0.0001578707
244.5057,-0.0001578038
244.6057,-0.0001577577
244.7057,-0.0001576993
244.8057,-0.0001576579
244.9057,-0.0001575675
245.0058,-0.0001575081
245.1058,-0.0001574366
245.2058,-0.000157348
245.3058,-0.0001573047
245.4058,-0.0001571917
245.5058,-0.0001571173
245.6058,-0.0001570947
245.7058,-0.0001570391
245.8058,-0.0001569459
245.9058,-0.000156929
246.0058,-0.0001568772
246.1058,-0.0001567952
246.2058,-0.0001567707
246.3058,-0.000156702
246.4058,-0.0001566446
246.5058,-0.0001566295
246.6059,-0.0001565504
246.7059,-0.0001564609
246.8059,-0.0001564289
246.9059,-0.0001563404
247.0059,-0.0001562782
247.1059,-0.0001561972
247.2059,-0.0001561031
247.3059,-0.0001560645
247.4059,-0.0001560616
247.5059,-0.0001559722
247.6059,-0.000155878
247.7059,-0.0001558121
247.8059,-0.0001557706
247.9059,-0.0001556783
248.0059,-0.0001556633
248.1059,-0.0001555738
248.2059,-0.0001555145
248.306,-0.0001554702
248.406,-0.0001553996
248.506,-0.0001553271
248.606,-0.0001552687
248.706,-0.0001552094
248.806,-0.00015515
248.906,-0.0001550832
249.006,-0.0001550125
249.106,-0.0001549617
249.206,-0.0001549259
249.306,-0.0001548346
249.406,-0.0001547639
249.506,-0.0001547244
249.606,-0.0001546858
249.706,-0.0001545982
249.806,-0.0001545172
249.9061,-0.0001545012
250.0061,-0.0001544456
250.1061,-0.0001543854
250.2061,-0.0001543731
250.3061,-0.0001542921
250.4061,-0.0001542017
250.5061,-0.0001541838
250.6061,-0.0001540783
250.7061,-0.0001539842
250.8061,-0.0001539861
250.9061,-0.0001539051
251.0061,-0.0001538382
251.1061,-0.0001537581
251.2061,-0.0001537101
251.3061,-0.0001536677
251.4061,-0.0001536197
251.5061,-0.0001535585
251.6062,-0.0001534521
251.7062,-0.0001534238
251.8062,-0.000153357
251.9062,-0.0001532901
252.0062,-0.0001532327
252.1062,-0.0001531667
252.2062,-0.0001531008
252.3062,-0.0001530697
252.4062,-0.0001530123
252.5062,-0.0001529511
252.6062,-0.0001528936
252.7062,-0.000152791
252.8062,-0.0001527844
252.9062,-0.0001527269
253.0062,-0.0001526215
253.1062,-0.0001525631
253.2063,-0.0001525311
253.3063,-0.0001524736
253.4063,-0.0001524058
253.5063,-0.000152355
253.6063,-0.0001522665
253.7063,-0.0001521987
253.8063,-0.0001521666
253.9063,-0.0001521035
254.0063,-0.0001520357
254.1063,-0.0001519792
254.2063,-0.0001519039
254.3063,-0.000151853
254.4063,-0.0001518229
254.5063,-0.0001517353
254.6063,-0.0001516741
254.7063,-0.0001516223
254.8064,-0.0001515413
254.9064,-0.0001514914
255.0064,-0.000151481
255.1064,-0.0001514104
255.2064,-0.0001513162
255.3064,-0.0001512889
255.4064,-0.0001512287
255.5064,-0.0001511571
255.6064,-0.0001510733
255.7064,-0.0001510413
255.8064,-0.0001509603
255.9064,-0.0001508652
256.0064,-0.0001508303
256.1064,-0.0001507682
256.2064,-0.0001507051
256.3064,-0.000150642
256.4064,-0.0001506165
256.5064,-0.0001505064
256.6064,-0.0001504706
256.7065,-0.000150415
256.8065,-0.0001503368
256.9065,-0.0001503029
257.0065,-0.0001502615
257.1065,-0.0001501871
257.2065,-0.0001501127
257.3065,-0.0001500525
257.4065,-0.0001499959
257.5065,-0.0001499771
257.6065,-0.0001499131
257.7065,-0.0001498179
257.8065,-0.0001497972
257.9065,-0.0001497407
258.0065,-0.0001496682
258.1065,-0.0001496221
258.2065,-0.0001495448
258.3065,-0.0001494761
258.4066,-0.0001494488
258.5066,-0.0001493678
258.6066,-0.0001492925
258.7066,-0.000149268
258.8066,-0.0001491766
258.9066,-0.0001491427
259.0066,-0.0001491013
259.1066,-0.0001490128
259.2066,-0.0001489544
259.3066,-0.0001489299
259.4066,-0.0001488706
259.5066,-0.0001488065
259.6066,-0.0001487397
259.7066,-0.0001486803
259.8066,-0.0001486182
259.9066,-0.0001485796
260.0067,-0.0001484977
260.1067,-0.0001484505
260.2067,-0.0001484025
260.3067,-0.00014833
260.4067,-0.00014825
260.5067,-0.0001482321
260.6067,-0.0001481596
260.7067,-0.0001480757
260.8067,-0.0001480324
260.9067,-0.0001479731
261.0067,-0.000147958
261.1067,-0.0001479147
261.2067,-0.000147813
261.3067,-0.000147764
261.4067,-0.0001477424
261.5067,-0.0001476623
261.6068,-0.0001475625
261.7068,-0.0001475408
261.8068,-0.0001474655
261.9068,-0.0001474146
262.0068,-0.0001473968
262.1068,-0.0001473082
262.2068,-0.0001472348
262.3068,-0.0001472065
262.4068,-0.0001471491
262.5068,-0.0001470766
262.6068,-0.0001470662
262.7068,-0.0001469937
262.8068,-0.0001468873
262.9068,-0.0001468656
263.0068,-0.0001468129
263.1068,-0.0001467583
263.2068,-0.000146713
263.3069,-0.0001466349
263.4069,-0.0001465549
263.5069,-0.0001465322
263.6069,-0.0001464729
263.7069,-0.0001464051
263.8069,-0.0001463467
263.9069,-0.0001462761
264.0069,-0.0001462243
264.1069,-0.000146197
264.2069,-0.000146099
264.3069,-0.0001460652
264.4069,-0.0001460105
264.5069,-0.0001459352
264.6069,-0.0001458985
264.7069,-0.0001458194
264.8069,-0.0001457553
264.907,-0.0001457111
265.007,-0.0001456461
265.107,-0.0001455792
265.207,-0.0001455171
265.307,-0.000145486
265.407,-0.0001454257
265.507,-0.000145373
265.607,-0.0001453165
265.707,-0.0001452722
265.807,-0.0001451837
265.907,-0.0001451291
266.007,-0.0001451187
266.107,-0.0001450594
266.207,-0.0001449953
266.307,-0.000144937
266.407,-0.0001448673
266.507,-0.0001448221
266.6071,-0.0001447787
266.7071,-0.000144678
266.8071,-0.0001446384
266.9071,-0.0001446403
267.0071,-0.0001445763
267.1071,-0.0001445028
267.2071,-0.000144451
267.3071,-0.0001443823
267.4071,-0.0001443371
267.5071,-0.0001442966
267.6071,-0.0001441996
267.7071,-0.000144145
267.8071,-0.0001441129
267.9071,-0.0001440367
268.0071,-0.0001439802
268.1071,-0.0001439491
268.2072,-0.000143886
268.3072,-0.0001438351
268.4072,-0.0001437805
268.5072,-0.0001437155
268.6072,-0.0001436703
268.7072,-0.0001436025
268.8072,-0.0001435357
268.9072,-0.0001434547
269.0072,-0.0001434424
269.1072,-0.0001434057
269.2072,-0.0001432974
269.3072,-0.0001432466
269.4072,-0.0001432183
269.5072,-0.0001431486
269.6072,-0.0001430996
269.7072,-0.0001430422
269.8073,-0.00014298
269.9073,-0.0001429198
270.0073,-0.0001428727
270.1073,-0.0001428115
270.2073,-0.0001427258
270.3073,-0.0001427079
270.4073,-0.0001426316
270.5073,-0.0001425826
270.6073,-0.0001425346
270.7073,-0.0001424423
270.8073,-0.0001423736
270.9073,-0.00014235
271.0073,-0.0001423048
271.1073,-0.0001422332
271.2073,-0.0001421815
271.3073,-0.0001421268
271.4073,-0.0001420703
271.5074,-0.000142027
271.6074,-0.0001419667
271.7074,-0.0001419234
271.8074,-0.0001418547
271.9074,-0.0001418151
272.0074,-0.0001417473
272.1074,-0.0001417162
272.2074,-0.0001416597
272.3074,-0.0001415882
272.4074,-0.000141542
272.5074,-0.000141478
272.6074,-0.0001414441
272.7074,-0.0001414007
272.8074,-0.0001413085
272.9074,-0.0001412812
273.0074,-0.0001412303
273.1075,-0.0001411512
273.2075,-0.0001410919
273.3075,-0.0001410589
273.4075,-0.0001410015
273.5075,-0.0001409261
273.6075,-0.0001409073
273.7075,-0.0001408159
273.8075,-0.0001407764
273.9075,-0.0001407453
274.0075,-0.0001406662
274.1075,-0.0001405918
274.2075,-0.0001405739
274.3075,-0.0001405014
274.4075,-0.0001404477
274.5075,-0.0001404044
274.6075,-0.0001403291
274.7076,-0.0001402669
274.8076,-0.0001402226
274.9076,-0.000140168
275.0076,-0.000140103
275.1076,-0.0001400786
275.2076,-0.0001399948
275.3076,-0.0001399467
275.4076,-0.0001399448
275.5076,-0.0001398704
275.6076,-0.0001398083
275.7076,-0.0001397386
275.8076,-0.0001396859
275.9076,-0.0001396369
276.0076,-0.0001395955
276.1076,-0.0001395201
276.2076,-0.0001394514
276.3076,-0.0001394297
276.4077,-0.0001393628
276.5077,-0.0001393224
276.6077,-0.00013928
276.7077,-0.0001392112
276.8077,-0.0001391378
276.9077,-0.0001390982
277.0077,-0.0001390558
277.1077,-0.0001390191
277.2077,-0.0001389485
277.3077,-0.0001389127
277.4077,-0.0001388336
277.5077,-0.0001388006
277.6077,-0.0001387178
277.7077,-0.0001386961
277.8077,-0.0001386443
277.9077,-0.0001385746
278.0078,-0.0001385162
278.1078,-0.0001384795
278.2078,-0.0001384578
278.3078,-0.0001383552
278.4078,-0.0001382912
278.5078,-0.0001382883
278.6078,-0.0001382168
278.7078,-0.0001381819
278.8078,-0.0001381716
278.9078,-0.0001380849
279.0078,-0.0001380388
279.1078,-0.0001380256
279.2078,-0.0001379889
279.3078,-0.0001378768
279.4078,-0.0001378005
279.5078,-0.0001377374
279.6078,-0.0001376922
279.7079,-0.0001376771
279.8079,-0.0001375933
279.9079,-0.0001374992
280.0079,-0.0001374671
280.1079,-0.0001374059
280.2079,-0.00013734
280.3079,-0.0001373127
280.4079,-0.0001372411
280.5079,-0.000137179
280.6079,-0.0001371545
280.7079,-0.0001371036
280.8079,-0.0001370462
280.9079,-0.0001370057
281.0079,-0.000136952
281.1079,-0.0001368607
281.2079,-0.0001368277
281.308,-0.0001367769
281.408,-0.000136726
281.508,-0.0001366874
281.608,-0.0001366158
281.708,-0.0001365556
281.808,-0.0001365358
281.908,-0.0001364934
282.008,-0.0001364218
282.108,-0.0001363644
282.208,-0.000136305
282.308,-0.0001362702
282.408,-0.0001362382
282.508,-0.0001361638
282.608,-0.0001360903
282.708,-0.0001360592
282.808,-0.0001360131
282.9081,-0.0001359679
283.0081,-0.0001359171
283.1081,-0.0001358483
283.2081,-0.000135773
283.3081,-0.0001357504
283.4081,-0.0001356788
283.5081,-0.0001356534
283.6081,-0.0001356044
283.7081,-0.0001355253
283.8081,-0.0001354641
283.9081,-0.0001354255
284.0081,-0.0001353643
284.1081,-0.0001352917
284.2081,-0.0001352908
284.3081,-0.0001352042
284.4081,-0.0001351439
284.5081,-0.0001351203
284.6082,-0.0001350516
284.7082,-0.0001350102
284.8082,-0.0001349734
284.9082,-0.0001349028
285.0082,-0.0001348538
285.1082,-0.0001348096
285.2082,-0.0001347578
285.3082,-0.0001346871
285.4082,-0.0001346325
285.5082,-0.0001345694
285.6082,-0.0001345553
285.7082,-0.0001345205
285.8082,-0.0001344545
285.9082,-0.0001344028
286.0082,-0.0001343453
286.1082,-0.0001342869
286.2083,-0.0001342587
286.3083,-0.0001341928
286.4083,-0.00013414
286.5083,-0.0001340816
286.6083,-0.0001340204
286.7083,-0.0001339903
286.8083,-0.0001339366
286.9083,-0.0001338886
287.0083,-0.0001338255
287.1083,-0.0001337831
287.2083,-0.0001337492
287.3083,-0.0001337247
287.4083,-0.0001336324
287.5083,-0.0001335806
287.6083,-0.0001335759
287.7083,-0.0001334959
287.8083,-0.0001334233
287.9084,-0.0001333734
288.0084,-0.0001333226
288.1084,-0.0001332849
288.2084,-0.0001332435
288.3084,-0.000133186
288.4084,-0.0001331041
288.5084,-0.0001330843
288.6084,-0.0001330485
288.7084,-0.0001330024
288.8084,-0.0001329581
288.9084,-0.0001328715
289.0084,-0.0001328169
289.1084,-0.0001327943
289.2084,-0.0001327585
289.3084,-0.0001326549
289.4084,-0.0001326238
289.5085,-0.0001325683
289.6085,-0.000132508
289.7085,-0.0001324703
289.8085,-0.0001324223
289.9085,-0.000132395
290.0085,-0.0001323922
290.1085,-0.0001323554
290.2085,-0.0001323281
290.3085,-0.0001323225
290.4085,-0.0001322952
290.5085,-0.0001322546
290.6085,-0.0001322293
290.7085,-0.0001321313
290.8085,-0.0001320644
290.9085,-0.0001320061
291.0085,-0.0001319024
291.1086,-0.0001318196
291.2086,-0.0001317951
291.3086,-0.0001317188
291.4086,-0.0001316482
291.5086,-0.0001316369
291.6086,-0.0001315879
291.7086,-0.0001315116
291.8086,-0.0001314627
291.9086,-0.0001314514
292.0086,-0.000131392
292.1086,-0.0001313412
292.2086,-0.00013128
292.3086,-0.0001312169
292.4086,-0.0001311839
292.5086,-0.0001311641
292.6086,-0.000131085
292.7086,-0.0001310332
292.8087,-0.0001310031
292.9087,-0.000130972
293.0087,-0.0001309146
293.1087,-0.0001308628
293.2087,-0.0001307988
293.3087,-0.0001307573
293.4087,-0.0001307338
293.5087,-0.0001306678
293.6087,-0.0001306245
293.7087,-0.0001305699
293.8087,-0.0001305087
293.9087,-0.0001304541
294.0087,-0.0001304145
294.1087,-0.0001303401
294.2087,-0.0001303024
294.3087,-0.0001302874
294.4088,-0.0001302149
294.5088,-0.0001301452
294.6088,-0.000130116
294.7088,-0.0001300614
294.8088,-0.0001300171
294.9088,-0.0001299888
295.0088,-0.000129889
295.1088,-0.0001298391
295.2088,-0.0001298325
295.3088,-0.0001297619
295.4088,-0.0001296979
295.5088,-0.0001296508
295.6088,-0.0001295867
295.7088,-0.0001295764
295.8088,-0.0001295265
295.9088,-0.0001294502
296.0089,-0.0001293861
296.1089,-0.0001293739
296.2089,-0.0001292929
296.3089,-0.0001292439
296.4089,-0.0001292025
296.5089,-0.0001291479
296.6089,-0.0001290942
296.7089,-0.0001290556
296.8089,-0.0001290198
296.9089,-0.0001289379
297.0089,-0.0001289124
297.1089,-0.0001288663
297.2089,-0.0001287891
297.3089,-0.0001287608
297.4089,-0.0001287024
297.5089,-0.0001286723
297.6089,-0.0001286309
297.709,-0.0001285706
297.809,-0.0001285216
297.909,-0.0001284774
298.009,-0.0001284284
298.109,-0.0001283672
298.209,-0.000128354
298.309,-0.000128274
298.409,-0.0001282165
298.509,-0.0001281873
298.609,-0.0001281591
298.709,-0.0001281157
298.809,-0.0001280668
298.909,-0.000128014
299.009,-0.0001279651
299.109,-0.0001279218
299.209,-0.0001278813
299.3091,-0.0001278153
299.4091,-0.0001277767
299.5091,-0.0001277249
299.6091,-0.0001276844
299.7091,-0.0001276534
299.8091,-0.000127595
299.9091,-0.0001275771
300.0091,-0.0001275394
300.1091,-0.0001274857
300.2091,-0.0001274264
300.3091,-0.0001274038
300.4091,-0.0001273624
300.5091,-0.0001273115
300.6091,-0.0001272616
300.7091,-0.0001272211
300.8091,-0.0001271693
300.9091,-0.0001271363
301.0092,-0.0001271006
301.1092,-0.0001270629
301.2092,-0.0001269885
301.3092,-0.0001269584
301.4092,-0.0001269122
301.5092,-0.0001268642
301.6092,-0.0001268237
301.7092,-0.0001267521
301.8092,-0.0001266796
301.9092,-0.0001266758
302.0092,-0.0001266212
302.1092,-0.0001265723
302.2092,-0.0001265073
302.3092,-0.0001264517
302.4092,-0.0001264206
302.5092,-0.0001263764
302.6093,-0.0001263236
302.7093,-0.0001262605
302.8093,-0.0001262229
302.9093,-0.0001261466
303.0093,-0.0001261042
303.1093,-0.000126092
303.2093,-0.0001260091
303.3093,-0.0001259488
303.4093,-0.0001259516
303.5093,-0.0001259046
303.6093,-0.000125832
303.7093,-0.0001257916
303.8093,-0.0001257332
303.9093,-0.0001256814
304.0093,-0.000125655
304.1093,-0.0001255787
304.2094,-0.0001255505
304.3094,-0.0001255062
304.4094,-0.0001254356
304.5094,-0.0001253951
304.6094,-0.000125396
304.7094,-0.0001253131
304.8094,-0.0001252595
304.9094,-0.0001252067
305.0094,-0.0001251615
305.1094,-0.0001251229
305.2094,-0.0001250777
305.3094,-0.0001250128
305.4094,-0.000124977
305.5094,-0.0001249553
305.6094,-0.0001248932
305.7094,-0.0001248442
305.8094,-0.0001247999
305.9095,-0.0001247406
306.0095,-0.000124701
306.1095,-0.0001246417
306.2095,-0.0001245927
306.3095,-0.0001245372
306.4095,-0.000124524
306.5095,-0.0001244882
306.6095,-0.0001244213
306.7095,-0.0001243677
306.8095,-0.000124313
306.9095,-0.0001242867
307.0095,-0.0001242744
307.1095,-0.0001242029
307.2095,-0.0001241492
307.3095,-0.0001241134
307.4095,-0.0001240748
307.5096,-0.0001240145
307.6096,-0.0001239458
307.7096,-0.0001239241
307.8096,-0.0001238695
307.9096,-0.0001238055
308.0096,-0.000123765
308.1096,-0.0001237197
308.2096,-0.0001236924
308.3096,-0.0001236435
308.4096,-0.0001235568
308.5096,-0.000123521
308.6096,-0.0001234918
308.7096,-0.0001234476
308.8096,-0.0001233892
308.9096,-0.0001233336
309.0096,-0.000123296
309.1096,-0.0001232696
309.2097,-0.000123215
309.3097,-0.0001231387
309.4097,-0.000123118
309.5097,-0.0001231001
309.6097,-0.0001230257
309.7097,-0.0001229758
309.8097,-0.0001229362
309.9097,-0.000122891
310.0097,-0.0001228778
310.1097,-0.0001228232
310.2097,-0.0001227347
310.3097,-0.0001227008
310.4097,-0.0001226754
310.5097,-0.000122616
310.6097,-0.0001225784
310.7097,-0.0001225134
310.8098,-0.0001224607
310.9098,-0.0001224098
311.0098,-0.0001223957
311.1098,-0.0001223514
311.2098,-0.0001222949
311.3098,-0.0001222554
311.4098,-0.000122181
311.5098,-0.0001221659
311.6098,-0.0001221292
311.7098,-0.0001220727
311.8098,-0.0001220039
311.9098,-0.0001220011
312.0098,-0.0001219455
312.1098,-0.0001218994
312.2098,-0.0001218495
312.3098,-0.0001217741
312.4099,-0.000121727
312.5099,-0.0001217223
312.6099,-0.0001216564
312.7099,-0.0001215905
312.8099,-0.0001215575
312.9099,-0.000121486
313.0099,-0.0001214549
313.1099,-0.0001214295
313.2099,-0.0001213843
313.3099,-0.0001213089
313.4099,-0.0001212807
313.5099,-0.0001212317
313.6099,-0.0001211865
313.7099,-0.0001211507
313.8099,-0.0001210669
313.9099,-0.0001210396
314.0099,-0.0001210311
314.11,-0.0001209708
314.21,-0.000120903
314.31,-0.0001208851
314.41,-0.0001208324
314.51,-0.0001207806
314.61,-0.0001207721
314.71,-0.0001207062
314.81,-0.0001206582
314.91,-0.0001206328
315.01,-0.0001205875
315.11,-0.0001205169
315.21,-0.0001205197
315.31,-0.0001204915
315.41,-0.0001204359
315.51,-0.0001203606
315.61,-0.0001203418
315.7101,-0.00012029
315.8101,-0.0001202617
315.9101,-0.0001202448
316.0101,-0.0001201572
316.1101,-0.0001201214
316.2101,-0.0001200818
316.3101,-0.0001200479
316.4101,-0.000120015
316.5101,-0.0001199641
316.6101,-0.0001199123
316.7101,-0.0001198662
316.8101,-0.0001198605
316.9101,-0.0001197871
317.0101,-0.0001197023
317.1101,-0.0001196665
317.2101,-0.0001196204
317.3102,-0.000119594
317.4102,-0.0001195422
317.5102,-0.0001195168
317.6102,-0.0001194556
317.7102,-0.0001194057
317.8102,-0.0001193689
317.9102,-0.0001192993
318.0102,-0.0001192738
318.1102,-0.0001192258
318.2102,-0.0001191825
318.3102,-0.0001191401
318.4102,-0.0001190723
318.5102,-0.0001190271
318.6102,-0.000119013
318.7102,-0.0001189499
318.8102,-0.0001188774
318.9102,-0.0001188435
319.0103,-0.0001188171
319.1103,-0.0001187785
319.2103,-0.0001187352
319.3103,-0.0001186419
319.4103,-0.0001186146
319.5103,-0.0001186109
319.6103,-0.0001185412
319.7103,-0.0001184969
319.8103,-0.0001184856
319.9103,-0.0001184357
320.0103,-0.0001183952
320.1103,-0.0001183255
320.2103,-0.0001182831
320.3103,-0.0001182219
320.4103,-0.0001182313
320.5103,-0.0001181447
320.6104,-0.000118092
320.7104,-0.0001180703
320.8104,-0.0001179912
320.9104,-0.0001179573
321.0104,-0.0001179422
321.1104,-0.0001178838
321.2104,-0.0001178236
321.3104,-0.0001177944
321.4104,-0.0001177454
321.5104,-0.0001177124
321.6104,-0.0001176606
321.7104,-0.0001176267
321.8104,-0.0001175618
321.9104,-0.0001175458
322.0104,-0.0001174808
322.1104,-0.0001174488
322.2104,-0.0001174233
322.3105,-0.0001173781
322.4105,-0.0001173263
322.5105,-0.0001172623
322.6105,-0.0001172265
322.7105,-0.000117186
322.8105,-0.0001171606
322.9105,-0.0001171022
323.0105,-0.0001170608
323.1105,-0.0001170278
323.2105,-0.000117009
323.3105,-0.0001169449
323.4105,-0.0001168847
323.5105,-0.0001168715
323.6105,-0.0001168357
323.7105,-0.0001168084
323.8105,-0.0001167293
323.9106,-0.0001166728
324.0106,-0.000116653
324.1106,-0.0001166031
324.2106,-0.0001165409
324.3106,-0.0001164967
324.4106,-0.0001164524
324.5106,-0.00011641
324.6106,-0.0001163601
324.7106,-0.000116345
324.8106,-0.0001162697
324.9106,-0.0001162075
325.0106,-0.0001161925
325.1106,-0.0001161539
325.2106,-0.0001161115
325.3106,-0.0001160644
325.4106,-0.0001159957
325.5107,-0.0001159627
325.6107,-0.0001159665
325.7107,-0.0001158742
325.8107,-0.0001158186
325.9107,-0.0001158431
326.0107,-0.0001157762
326.1107,-0.0001157197
326.2107,-0.0001157122
326.3107,-0.0001156887
326.4107,-0.0001156275
326.5107,-0.0001155719
326.6107,-0.0001155267
326.7107,-0.0001154975
326.8107,-0.0001154947
326.9107,-0.0001154287
327.0107,-0.0001153562
327.1107,-0.000115327
327.2108,-0.0001152715
327.3108,-0.0001152413
327.4108,-0.0001152103
327.5108,-0.0001151726
327.6108,-0.0001151114
327.7108,-0.0001150709
327.8108,-0.0001150492
327.9108,-0.0001149927
328.0108,-0.000114973
328.1108,-0.0001149277
328.2108,-0.0001148684
328.3108,-0.000114858
328.4108,-0.0001147893
328.5108,-0.0001147159
328.6108,-0.0001146989
328.7108,-0.0001146998
328.8109,-0.0001146236
328.9109,-0.0001145624
329.0109,-0.0001145803
329.1109,-0.0001145633
329.2109,-0.0001144955
329.3109,-0.0001144531
329.4109,-0.000114406
329.5109,-0.0001143542
329.6109,-0.00011431
329.7109,-0.0001142619
329.8109,-0.0001141979
329.9109,-0.0001141527
330.0109,-0.0001141075
330.1109,-0.0001140792
330.2109,-0.0001140566
330.3109,-0.0001139964
330.4109,-0.0001139483
330.511,-0.0001139135
330.611,-0.0001138777
330.711,-0.0001138495
330.811,-0.0001138061
330.911,-0.0001137412
331.011,-0.0001136931
331.111,-0.0001136828
331.211,-0.0001136479
331.311,-0.0001135877
331.411,-0.00011355
331.511,-0.0001134916
331.611,-0.0001134699
331.711,-0.000113437
331.811,-0.0001133645
331.911,-0.0001133325
332.011,-0.0001133033
332.1111,-0.0001132562
332.2111,-0.0001132025
332.3111,-0.0001131686
332.4111,-0.0001131177
332.5111,-0.0001130669
332.6111,-0.0001130405
332.7111,-0.0001129548
332.8111,-0.0001129473
332.9111,-0.0001129529
333.0111,-0.000112903
333.1111,-0.000112838
333.2111,-0.0001127966
333.3111,-0.0001127749
333.4111,-0.0001127175
333.5111,-0.000112677
333.6111,-0.000112612
333.7112,-0.0001125668
333.8112,-0.0001125348
333.9112,-0.0001124774
334.0112,-0.000112434
334.1112,-0.0001124001
334.2112,-0.00011237
334.3112,-0.0001123031
334.4112,-0.0001123088
334.5112,-0.0001122532
334.6112,-0.0001122033
334.7112,-0.0001121562
334.8112,-0.0001121628
334.9112,-0.0001121195
335.0112,-0.0001120743
335.1112,-0.0001120234
335.2112,-0.0001119641
335.3112,-0.0001119255
335.4113,-0.0001118925
335.5113,-0.000111837
335.6113,-0.0001117993
335.7113,-0.000111755
335.8113,-0.0001117033
335.9113,-0.0001116609
336.0113,-0.0001116392
336.1113,-0.0001115968
336.2113,-0.0001115215
336.3113,-0.0001114923
336.4113,-0.0001114537
336.5113,-0.0001114141
336.6113,-0.0001113793
336.7113,-0.0001113106
336.8113,-0.0001112578
336.9113,-0.000111254
337.0114,-0.0001112088
337.1114,-0.0001111495
337.2114,-0.0001111241
337.3114,-0.0001110836
337.4114,-0.0001110337
337.5114,-0.000111013
337.6114,-0.0001109762
337.7114,-0.0001109301
337.8114,-0.0001109037
337.9114,-0.000110867
338.0114,-0.0001107945
338.1114,-0.0001107738
338.2114,-0.0001107408
338.3114,-0.0001107154
338.4114,-0.0001106928
338.5114,-0.0001106071
338.6115,-0.0001105468
338.7115,-0.0001105882
338.8115,-0.000110512
338.9115,-0.00011043
339.0115,-0.0001104225
339.1115,-0.0001103905
339.2115,-0.0001103274
339.3115,-0.0001103086
339.4115,-0.000110252
339.5115,-0.0001101984
339.6115,-0.0001101908
339.7115,-0.0001101353
339.8115,-0.0001100684
339.9115,-0.0001100505
340.0115,-0.0001100176
340.1115,-0.0001099761
340.2115,-0.0001099441
340.3116,-0.0001099158
340.4116,-0.0001098546
340.5116,-0.0001098462
340.6116,-0.0001097765
340.7116,-0.0001097435
340.8116,-0.0001097303
340.9116,-0.0001096851
341.0116,-0.0001096324
341.1116,-0.0001095928
341.2116,-0.0001095693
341.3116,-0.0001095118
341.4116,-0.0001095006
341.5116,-0.000109445
341.6116,-0.0001094064
341.7116,-0.0001093659
341.8116,-0.0001093113
341.9117,-0.0001092764
342.0117,-0.000109251
342.1117,-0.000109186
342.2117,-0.0001091361
342.3117,-0.0001091323
342.4117,-0.0001090984
342.5117,-0.0001090504
342.6117,-0.0001090099
342.7117,-0.0001089496
342.8117,-0.0001089157
342.9117,-0.000108896
343.0117,-0.0001088394
343.1117,-0.0001087961
343.2117,-0.0001087698
343.3117,-0.0001087001
343.4117,-0.0001086794
343.5117,-0.0001086681
343.6118,-0.0001086068
343.7118,-0.0001085616
343.8118,-0.0001085136
343.9118,-0.0001084976
344.0118,-0.0001084439
344.1118,-0.0001084213
344.2118,-0.0001083498
344.3118,-0.0001083083
344.4118,-0.0001082961
344.5118,-0.0001082575
344.6118,-0.000108216
344.7118,-0.0001081671
344.8118,-0.0001081266
344.9118,-0.0001080842
345.0118,-0.0001080766
345.1118,-0.0001080324
345.2119,-0.0001079721
345.3119,-0.0001079514
345.4119,-0.0001079062
345.5119,-0.0001078648
345.6119,-0.0001078431
345.7119,-0.0001077809
345.8119,-0.0001077376
345.9119,-0.0001077094
346.0119,-0.000107667
346.1119,-0.000107618
346.2119,-0.0001075917
346.3119,-0.0001075738
346.4119,-0.0001074805
346.5119,-0.0001074834
346.6119,-0.0001074287
346.7119,-0.000107409
346.812,-0.0001073911
346.912,-0.0001073308
347.012,-0.000107279
347.112,-0.0001072347
347.212,-0.0001072103
347.312,-0.0001071942
347.412,-0.0001071189
347.512,-0.0001071048
347.612,-0.0001070313
347.712,-0.0001070172
347.812,-0.0001069927
347.912,-0.0001069475
348.012,-0.0001069023
348.112,-0.0001068571
348.212,-0.0001068204
348.312,-0.0001067799
348.412,-0.0001067526
348.5121,-0.0001067083
348.6121,-0.0001066989
348.7121,-0.0001066697
348.8121,-0.0001066057
348.9121,-0.000106552
349.0121,-0.0001065322
349.1121,-0.000106487
349.2121,-0.0001064587
349.3121,-0.0001064088
349.4121,-0.0001063401
349.5121,-0.0001063109
349.6121,-0.0001063166
349.7121,-0.0001062563
349.8121,-0.0001062064
349.9121,-0.0001061791
350.0121,-0.0001061112
350.1122,-0.0001060915
350.2122,-0.0001060811
350.3122,-0.0001060171
350.4122,-0.0001059577
350.5122,-0.0001059577
350.6122,-0.0001059304
350.7122,-0.0001058702
350.8122,-0.0001058306
350.9122,-0.0001057977
351.0122,-0.0001057383
351.1122,-0.0001057402
351.2122,-0.0001056847
351.3122,-0.0001056225
351.4122,-0.0001056046
351.5122,-0.0001055594
351.6122,-0.0001055057
351.7122,-0.0001054963
351.8123,-0.0001054473
351.9123,-0.0001054021
352.0123,-0.0001053805
352.1123,-0.0001053268
352.2123,-0.0001052872
352.3123,-0.000105259
352.4123,-0.0001052223
352.5123,-0.0001051742
352.6123,-0.0001051253
352.7123,-0.000105114
352.8123,-0.0001050735
352.9123,-0.0001050424
353.0123,-0.0001049953
353.1123,-0.0001049369
353.2123,-0.000104903
353.3123,-0.0001048748
353.4124,-0.0001048267
353.5124,-0.0001047957
353.6124,-0.000104758
353.7124,-0.0001047354
353.8124,-0.0001046902
353.9124,-0.0001046732
354.0124,-0.0001046252
354.1124,-0.0001045602
354.2124,-0.0001045414
354.3124,-0.0001044952
354.4124,-0.0001044877
354.5124,-0.0001044435
354.6124,-0.0001043945
354.7124,-0.000104353
354.8124,-0.0001043342
354.9124,-0.0001042984
355.0125,-0.0001042466
355.1125,-0.0001042259
355.2125,-0.0001041873
355.3125,-0.0001041289
355.4125,-0.0001041176
355.5125,-0.0001040602
355.6125,-0.0001040338
355.7125,-0.0001039971
355.8125,-0.0001039443
355.9125,-0.0001039246
356.0125,-0.0001039198
356.1125,-0.0001038558
356.2125,-0.0001038003
356.3125,-0.0001037833
356.4125,-0.00010374
356.5125,-0.0001036901
356.6125,-0.0001036449
356.7126,-0.0001035921
356.8126,-0.0001036081
356.9126,-0.000103561
357.0126,-0.0001035074
357.1126,-0.0001034565
357.2126,-0.0001034367
357.3126,-0.0001033934
357.4126,-0.0001033736
357.5126,-0.00010332
357.6126,-0.0001032616
357.7126,-0.0001032258
357.8126,-0.0001032409
357.9126,-0.0001031872
358.0126,-0.0001031486
358.1126,-0.0001031005
358.2126,-0.0001030789
358.3127,-0.0001030393
358.4127,-0.0001029781
358.5127,-0.0001029348
358.6127,-0.0001029273
358.7127,-0.0001028868
358.8127,-0.0001028792
358.9127,-0.0001028161
359.0127,-0.0001027549
359.1127,-0.0001027483
359.2127,-0.0001026899
359.3127,-0.0001026495
359.4127,-0.0001026042
359.5127,-0.0001025355
359.6127,-0.0001025553
359.7127,-0.0001025327
359.8127,-0.000102479
359.9128,-0.0001024291
360.0128,-0.0001024131
360.1128,-0.0001023688
360.2128,-0.0001023453
360.3128,-0.0001023142
360.4128,-0.0001022407
360.5128,-0.0001022191
360.6128,-0.0001022012
360.7128,-0.0001021484
360.8128,-0.0001021277
360.9128,-0.000102075
361.0128,-0.0001020251
361.1128,-0.00010201
361.2128,-0.0001019808
361.3128,-0.0001019488
361.4128,-0.0001018697
361.5128,-0.000101848
361.6129,-0.0001018141
361.7129,-0.0001017802
361.8129,-0.0001017501
361.9129,-0.0001016983
362.0129,-0.0001016503
362.1129,-0.0001016522
362.2129,-0.0001016041
362.3129,-0.0001015561
362.4129,-0.0001015269
362.5129,-0.0001014742
362.6129,-0.0001014459
362.7129,-0.0001014384
362.8129,-0.0001013875
362.9129,-0.000101364
363.0129,-0.0001013536
363.1129,-0.0001012472
363.213,-0.0001012689
363.313,-0.0001012613
363.413,-0.0001012105
363.513,-0.0001011512
363.613,-0.0001011323
363.713,-0.0001011069
363.813,-0.000101073
363.913,-0.0001010184
364.013,-0.0001009713
364.113,-0.0001009412
364.213,-0.0001009223
364.313,-0.0001008536
364.413,-0.0001008206
364.513,-0.0001008187
364.613,-0.0001007641
364.713,-0.0001007151
364.813,-0.0001006803
364.9131,-0.000100636
365.0131,-0.0001006228
365.1131,-0.0001005889
365.2131,-0.0001005353
365.3131,-0.0001004901
365.4131,-0.0001004985
365.5131,-0.0001004854
365.6131,-0.0001004232
365.7131,-0.0001003582
365.8131,-0.0001003479
365.9131,-0.0001002923
366.0131,-0.0001002961
366.1131,-0.0001002226
366.2131,-0.0001001576
366.3131,-0.000100152
366.4131,-0.0001001266
366.5132,-0.0001000832
366.6132,-0.0001000305
366.7132,-9.999942E-05
366.8132,-9.999283E-05
366.9132,-9.991843E-05
367.0132,-9.988076E-05
367.1132,-9.986664E-05
367.2132,-9.982332E-05
367.3132,-9.977905E-05
367.4132,-9.973197E-05
367.5132,-9.97056E-05
367.6132,-9.967264E-05
367.7132,-9.962838E-05
367.8132,-9.958976E-05
367.9132,-9.956905E-05
368.0132,-9.952667E-05
368.1133,-9.947205E-05
368.2133,-9.945133E-05
368.3133,-9.939483E-05
368.4133,-9.938541E-05
368.5133,-9.936375E-05
368.6133,-9.927806E-05
368.7133,-9.928935E-05
368.8133,-9.927052E-05
368.9133,-9.921684E-05
369.0133,-9.916788E-05
369.1133,-9.914904E-05
369.2133,-9.910572E-05
369.3133,-9.907557E-05
369.4133,-9.905203E-05
369.5133,-9.89946E-05
369.6133,-9.893809E-05
369.7133,-9.894656E-05
369.8134,-9.888723E-05
369.9134,-9.884297E-05
370.0134,-9.882697E-05
370.1134,-9.878741E-05
370.2134,-9.873373E-05
370.3134,-9.872337E-05
370.4134,-9.867346E-05
370.5134,-9.866311E-05
370.6134,-9.862543E-05
370.7134,-9.857458E-05
370.8134,-9.85209E-05
370.9134,-9.853879E-05
371.0134,-9.849641E-05
371.1134,-9.845498E-05
371.2134,-9.842579E-05
371.3134,-9.837776E-05
371.4135,-9.837116E-05
371.5135,-9.83382E-05
371.6135,-9.829395E-05
371.7135,-9.824968E-05
371.8135,-9.821861E-05
371.9135,-9.814985E-05
372.0135,-9.81508E-05
372.1135,-9.811595E-05
372.2135,-9.806133E-05
372.3135,-9.803403E-05
372.4135,-9.799541E-05
372.5135,-9.795963E-05
372.6135,-9.793702E-05
372.7135,-9.791348E-05
372.8135,-9.785133E-05
372.9135,-9.781178E-05
373.0135,-9.780518E-05
373.1136,-9.775904E-05
373.2136,-9.771949E-05
373.3136,-9.768087E-05
373.4136,-9.764321E-05
373.5136,-9.76093E-05
373.6136,-9.761872E-05
373.7136,-9.754998E-05
373.8136,-9.749724E-05
373.9136,-9.748312E-05
374.0136,-9.744827E-05
374.1136,-9.740306E-05
374.2136,-9.736823E-05
374.3136,-9.735315E-05
374.4136,-9.729664E-05
374.5136,-9.727875E-05
374.6136,-9.723449E-05
374.7137,-9.721378E-05
374.8137,-9.719965E-05
374.9137,-9.717987E-05
375.0137,-9.713091E-05
375.1137,-9.707064E-05
375.2137,-9.706781E-05
375.3137,-9.702543E-05
375.4137,-9.697834E-05
375.5137,-9.693878E-05
375.6137,-9.689171E-05
375.7137,-9.687381E-05
375.8137,-9.683615E-05
375.9137,-9.677116E-05
376.0137,-9.672219E-05
376.1137,-9.672125E-05
376.2137,-9.671183E-05
376.3138,-9.666475E-05
376.4138,-9.661954E-05
376.5138,-9.653479E-05
376.6138,-9.653761E-05
376.7138,-9.652537E-05
376.8138,-9.647358E-05
376.9138,-9.643308E-05
377.0138,-9.640859E-05
377.1138,-9.640012E-05
377.2138,-9.636433E-05
377.3138,-9.632667E-05
377.4138,-9.626074E-05
377.5138,-9.625791E-05
377.6138,-9.62438E-05
377.7138,-9.618352E-05
377.8138,-9.61581E-05
377.9138,-9.615527E-05
378.0139,-9.612984E-05
378.1139,-9.609877E-05
378.2139,-9.606957E-05
378.3139,-9.603096E-05
378.4139,-9.59754E-05
378.5139,-9.598199E-05
378.6139,-9.591701E-05
378.7139,-9.587275E-05
378.8139,-9.584167E-05
378.9139,-9.579459E-05
379.0139,-9.576634E-05
379.1139,-9.576257E-05
379.2139,-9.572207E-05
379.3139,-9.565144E-05
379.4139,-9.56279E-05
379.5139,-9.558552E-05
379.614,-9.557046E-05
379.714,-9.553843E-05
379.814,-9.548193E-05
379.914,-9.543861E-05
380.014,-9.54631E-05
380.114,-9.541413E-05
380.214,-9.535857E-05
380.314,-9.531713E-05
380.414,-9.529736E-05
380.514,-9.527476E-05
380.614,-9.525497E-05
380.714,-9.518529E-05
380.814,-9.515986E-05
380.914,-9.515516E-05
381.014,-9.512596E-05
381.114,-9.508828E-05
381.2141,-9.503367E-05
381.3141,-9.500071E-05
381.4141,-9.496869E-05
381.5141,-9.497057E-05
381.6141,-9.491312E-05
381.7141,-9.486605E-05
381.8141,-9.484626E-05
381.9141,-9.482837E-05
382.0141,-9.479729E-05
382.1141,-9.475303E-05
382.2141,-9.470312E-05
382.3141,-9.466169E-05
382.4141,-9.467205E-05
382.5141,-9.463249E-05
382.6141,-9.455998E-05
382.7141,-9.454962E-05
382.8141,-9.449499E-05
382.9142,-9.447993E-05
383.0142,-9.448369E-05
383.1142,-9.442343E-05
383.2142,-9.437351E-05
383.3142,-9.435845E-05
383.4142,-9.432266E-05
383.5142,-9.430194E-05
383.6142,-9.42718E-05
383.7142,-9.423979E-05
383.8142,-9.41767E-05
383.9142,-9.414938E-05
384.0142,-9.411077E-05
384.1142,-9.408064E-05
384.2142,-9.405991E-05
384.3142,-9.40213E-05
384.4142,-9.399777E-05
384.5143,-9.397422E-05
384.6143,-9.391207E-05
384.7143,-9.387911E-05
384.8143,-9.386404E-05
384.9143,-9.382825E-05
385.0143,-9.377834E-05
385.1143,-9.376515E-05
385.2143,-9.372467E-05
385.3143,-9.369735E-05
385.4143,-9.366251E-05
385.5143,-9.361636E-05
385.6143,-9.359094E-05
385.7143,-9.35674E-05
385.8143,-9.352973E-05
385.9143,-9.350524E-05
386.0143,-9.346287E-05
386.1143,-9.347322E-05
386.2144,-9.338093E-05
386.3144,-9.335362E-05
386.4144,-9.336492E-05
386.5144,-9.33103E-05
386.6144,-9.325003E-05
386.7144,-9.324909E-05
386.8144,-9.324344E-05
386.9144,-9.320577E-05
387.0144,-9.318411E-05
387.1144,-9.311912E-05
387.2144,-9.30937E-05
387.3144,-9.309276E-05
387.4144,-9.303344E-05
387.5144,-9.297881E-05
387.6144,-9.295149E-05
387.7144,-9.291854E-05
387.8145,-9.289499E-05
387.9145,-9.28658E-05
388.0145,-9.282531E-05
388.1145,-9.278765E-05
388.2145,-9.277069E-05
388.3145,-9.272078E-05
388.4145,-9.270005E-05
388.5145,-9.267652E-05
388.6145,-9.262189E-05
388.7145,-9.257481E-05
388.8145,-9.258516E-05
388.9145,-9.255786E-05
389.0145,-9.250324E-05
389.1145,-9.245145E-05
389.2145,-9.241754E-05
389.3145,-9.237799E-05
389.4146,-9.237987E-05
389.5146,-9.229041E-05
389.6146,-9.229323E-05
389.7146,-9.229888E-05
389.8146,-9.225651E-05
389.9146,-9.22E-05
390.0146,-9.216892E-05
390.1146,-9.213973E-05
390.2146,-9.213125E-05
390.3146,-9.209829E-05
390.4146,-9.20286E-05
390.5146,-9.197304E-05
390.6146,-9.197493E-05
390.7146,-9.191936E-05
390.8146,-9.190241E-05
390.9146,-9.187322E-05
391.0146,-9.182895E-05
391.1147,-9.179223E-05
391.2147,-9.175832E-05
391.3147,-9.171783E-05
391.4147,-9.16943E-05
391.5147,-9.166415E-05
391.6147,-9.163025E-05
391.7147,-9.156527E-05
391.8147,-9.156622E-05
391.9147,-9.154549E-05
392.0147,-9.149841E-05
392.1147,-9.145509E-05
392.2147,-9.145226E-05
392.3147,-9.139859E-05
392.4147,-9.135621E-05
392.5147,-9.13289E-05
392.6147,-9.130347E-05
392.7148,-9.127145E-05
392.8148,-9.124885E-05
392.9148,-9.119046E-05
393.0148,-9.116221E-05
393.1148,-9.116033E-05
393.2148,-9.111795E-05
393.3148,-9.107745E-05
393.4148,-9.107464E-05
393.5148,-9.105486E-05
393.6148,-9.100965E-05
393.7148,-9.095974E-05
393.8148,-9.094185E-05
393.9148,-9.089665E-05
394.0148,-9.089005E-05
394.1148,-9.083637E-05
394.2148,-9.079023E-05
394.3148,-9.078175E-05
394.4149,-9.073654E-05
394.5149,-9.071489E-05
394.6149,-9.06791E-05
394.7149,-9.063861E-05
394.8149,-9.059906E-05
394.9149,-9.061224E-05
395.0149,-9.054161E-05
395.1149,-9.048699E-05
395.2149,-9.050394E-05
395.3149,-9.047192E-05
395.4149,-9.043614E-05
395.5149,-9.041165E-05
395.6149,-9.035233E-05
395.7149,-9.031465E-05
395.8149,-9.031936E-05
395.9149,-9.029394E-05
396.015,-9.023367E-05
396.115,-9.020259E-05
396.215,-9.016303E-05
396.315,-9.014797E-05
396.415,-9.01216E-05
396.515,-9.007357E-05
396.615,-9.004815E-05
396.715,-9.005474E-05
396.815,-9.001236E-05
396.915,-8.996527E-05
397.015,-8.992007E-05
397.115,-8.990218E-05
397.215,-8.988052E-05
397.315,-8.984756E-05
397.415,-8.982589E-05
397.515,-8.975904E-05
397.6151,-8.973643E-05
397.7151,-8.972701E-05
397.8151,-8.970065E-05
397.9151,-8.965921E-05
398.0151,-8.961494E-05
398.1151,-8.957633E-05
398.2151,-8.956315E-05
398.3151,-8.95283E-05
398.4151,-8.948499E-05
398.5151,-8.945297E-05
398.6151,-8.946239E-05
398.7151,-8.940305E-05
398.8151,-8.932866E-05
398.9151,-8.934372E-05
399.0151,-8.931266E-05
399.1151,-8.92665E-05
399.2151,-8.921659E-05
399.3152,-8.918175E-05
399.4152,-8.917328E-05
399.5152,-8.915162E-05
399.6152,-8.908287E-05
399.7152,-8.905556E-05
399.8152,-8.90904E-05
399.9152,-8.906215E-05
400.0152,-8.89934E-05
400.1152,-8.895291E-05
400.2152,-8.893219E-05
400.3152,-8.889264E-05
400.4152,-8.887192E-05
400.5152,-8.883425E-05
400.6152,-8.878057E-05
400.7152,-8.876645E-05
400.8152,-8.873066E-05
400.9153,-8.869017E-05
401.0153,-8.868358E-05
401.1153,-8.863366E-05
401.2153,-8.857904E-05
401.3153,-8.856962E-05
401.4153,-8.852442E-05
401.5153,-8.849993E-05
401.6153,-8.84811E-05
401.7153,-8.840765E-05
401.8153,-8.839634E-05
401.9153,-8.839917E-05
402.0153,-8.837657E-05
402.1153,-8.832006E-05
402.2153,-8.831065E-05
402.3153,-8.827581E-05
402.4153,-8.825037E-05
402.5154,-8.820423E-05
402.6154,-8.818351E-05
402.7154,-8.815715E-05
402.8154,-8.813737E-05
402.9154,-8.809404E-05
403.0154,-8.804979E-05
403.1154,-8.804603E-05
403.2154,-8.800458E-05
403.3154,-8.796503E-05
403.4154,-8.791607E-05
403.5154,-8.789251E-05
403.6154,-8.788593E-05
403.7154,-8.785297E-05
403.8154,-8.783319E-05
403.9154,-8.777293E-05
404.0154,-8.775973E-05
404.1154,-8.775785E-05
404.2155,-8.770228E-05
404.3155,-8.765802E-05
404.4155,-8.763731E-05
404.5155,-8.761659E-05
404.6155,-8.75987E-05
404.7155,-8.757986E-05
404.8155,-8.750547E-05
404.9155,-8.748852E-05
405.0155,-8.749793E-05
405.1155,-8.742165E-05
405.2155,-8.740094E-05
405.3155,-8.738964E-05
405.4155,-8.735761E-05
405.5155,-8.733407E-05
405.6155,-8.729829E-05
405.7155,-8.725026E-05
405.8156,-8.7206E-05
405.9156,-8.72173E-05
406.0156,-8.715985E-05
406.1156,-8.711748E-05
406.2156,-8.710241E-05
406.3156,-8.70506E-05
406.4156,-8.701671E-05
406.5156,-8.702424E-05
406.6156,-8.69894E-05
406.7156,-8.692442E-05
406.8156,-8.691312E-05
406.9156,-8.688298E-05
407.0156,-8.686886E-05
407.1156,-8.683967E-05
407.2156,-8.678599E-05
407.3156,-8.675397E-05
407.4156,-8.676244E-05
407.5157,-8.671723E-05
407.6157,-8.667581E-05
407.7157,-8.665414E-05
407.8157,-8.662024E-05
407.9157,-8.658916E-05
408.0157,-8.659387E-05
408.1157,-8.651947E-05
408.2157,-8.646862E-05
408.3157,-8.650911E-05
408.4157,-8.650159E-05
408.5157,-8.644979E-05
408.6157,-8.642436E-05
408.7157,-8.639611E-05
408.8157,-8.636127E-05
408.9157,-8.635373E-05
409.0157,-8.632265E-05
409.1158,-8.626991E-05
409.2158,-8.626897E-05
409.3158,-8.622471E-05
409.4158,-8.619929E-05
409.5158,-8.618704E-05
409.6158,-8.614372E-05
409.7158,-8.60957E-05
409.8158,-8.607309E-05
409.9158,-8.604766E-05
410.0158,-8.602319E-05
410.1158,-8.600529E-05
410.2158,-8.596763E-05
410.3158,-8.592053E-05
410.4158,-8.590546E-05
410.5158,-8.587533E-05
410.6158,-8.584519E-05
410.7159,-8.58113E-05
410.8159,-8.577739E-05
410.9159,-8.575385E-05
411.0159,-8.574632E-05
411.1159,-8.569263E-05
411.2159,-8.564554E-05
411.3159,-8.565025E-05
411.4159,-8.563143E-05
411.5159,-8.558528E-05
411.6159,-8.556173E-05
411.7159,-8.552501E-05
411.8159,-8.550147E-05
411.9159,-8.549299E-05
412.0159,-8.546004E-05
412.1159,-8.540824E-05
412.2159,-8.539034E-05
412.3159,-8.536773E-05
412.416,-8.534043E-05
412.516,-8.531688E-05
412.616,-8.527168E-05
412.716,-8.523872E-05
412.816,-8.522271E-05
412.916,-8.51841E-05
413.016,-8.51615E-05
413.116,-8.515679E-05
413.216,-8.513701E-05
413.316,-8.508898E-05
413.416,-8.50419E-05
413.516,-8.505037E-05
413.616,-8.501836E-05
413.716,-8.49967E-05
413.816,-8.49628E-05
413.916,-8.491759E-05
414.0161,-8.487992E-05
414.1161,-8.488086E-05
414.2161,-8.485261E-05
414.3161,-8.48545E-05
414.4161,-8.482059E-05
414.5161,-8.474242E-05
414.6161,-8.472453E-05
414.7161,-8.470852E-05
414.8161,-8.468969E-05
414.9161,-8.465014E-05
415.0161,-8.460964E-05
415.1161,-8.458139E-05
415.2161,-8.456444E-05
415.3161,-8.454655E-05
415.4161,-8.451829E-05
415.5161,-8.447403E-05
415.6161,-8.445144E-05
415.7162,-8.443542E-05
415.8162,-8.439494E-05
415.9162,-8.435349E-05
416.0162,-8.431583E-05
416.1162,-8.428852E-05
416.2162,-8.427438E-05
416.3162,-8.423013E-05
416.4162,-8.418304E-05
416.5162,-8.417645E-05
416.6162,-8.416044E-05
416.7162,-8.410864E-05
416.8162,-8.407474E-05
416.9162,-8.408133E-05
417.0162,-8.400693E-05
417.1162,-8.395043E-05
417.2162,-8.399375E-05
417.3163,-8.394667E-05
417.4163,-8.393066E-05
417.5163,-8.391748E-05
417.6163,-8.390146E-05
417.7163,-8.385531E-05
417.8163,-8.384496E-05
417.9163,-8.381765E-05
418.0163,-8.375549E-05
418.1163,-8.374042E-05
418.2163,-8.375079E-05
418.3163,-8.370558E-05
418.4163,-8.369805E-05
418.5163,-8.361612E-05
418.6163,-8.361235E-05
418.7163,-8.363118E-05
418.8163,-8.358598E-05
418.9164,-8.351347E-05
419.0164,-8.348615E-05
419.1164,-8.347203E-05
419.2164,-8.344378E-05
419.3164,-8.341836E-05
419.4164,-8.337975E-05
419.5164,-8.334584E-05
419.6164,-8.33157E-05
419.7164,-8.327804E-05
419.8164,-8.323565E-05
419.9164,-8.324508E-05
420.0164,-8.321965E-05
420.1164,-8.315562E-05
420.2164,-8.314431E-05
420.3164,-8.311982E-05
420.4164,-8.308592E-05
420.5164,-8.30831E-05
420.6165,-8.303978E-05
420.7165,-8.299364E-05
420.8165,-8.299458E-05
420.9165,-8.297668E-05
421.0165,-8.291547E-05
421.1165,-8.289946E-05
421.2165,-8.287215E-05
421.3165,-8.283636E-05
421.4165,-8.283542E-05
421.5165,-8.278362E-05
421.6165,-8.275537E-05
421.7165,-8.27582E-05
421.8165,-8.272712E-05
421.9165,-8.270075E-05
422.0165,-8.26612E-05
422.1165,-8.263295E-05
422.2166,-8.260941E-05
422.3166,-8.259999E-05
422.4166,-8.255855E-05
422.5166,-8.251712E-05
422.6166,-8.251241E-05
422.7166,-8.24851E-05
422.8166,-8.246533E-05
422.9166,-8.24286E-05
423.0166,-8.240788E-05
423.1166,-8.238057E-05
423.2166,-8.237304E-05
423.3166,-8.232877E-05
423.4166,-8.229205E-05
423.5166,-8.231371E-05
423.6166,-8.227697E-05
423.7166,-8.222611E-05
423.8167,-8.220824E-05
423.9167,-8.218939E-05
424.0167,-8.215738E-05
424.1167,-8.214325E-05
424.2167,-8.209616E-05
424.3167,-8.205661E-05
424.4167,-8.205096E-05
424.5167,-8.201235E-05
424.6167,-8.199069E-05
424.7167,-8.198033E-05
424.8167,-8.194454E-05
424.9167,-8.190217E-05
425.0167,-8.185602E-05
425.1167,-8.183248E-05
425.2167,-8.182872E-05
425.3167,-8.178446E-05
425.4167,-8.176185E-05
425.5168,-8.171571E-05
425.6168,-8.170441E-05
425.7168,-8.169687E-05
425.8168,-8.164978E-05
425.9168,-8.160363E-05
426.0168,-8.161682E-05
426.1168,-8.159423E-05
426.2168,-8.157162E-05
426.3168,-8.149911E-05
426.4168,-8.148027E-05
426.5168,-8.146802E-05
426.6168,-8.144449E-05
426.7168,-8.139928E-05
426.8168,-8.138421E-05
426.9168,-8.138044E-05
427.0168,-8.132206E-05
427.1169,-8.128722E-05
427.2169,-8.129757E-05
427.3169,-8.127874E-05
427.4169,-8.124013E-05
427.5169,-8.120811E-05
427.6169,-8.117232E-05
427.7169,-8.113936E-05
427.8169,-8.115443E-05
427.9169,-8.110169E-05
428.0169,-8.104801E-05
428.1169,-8.104613E-05
428.2169,-8.103294E-05
428.3169,-8.099434E-05
428.4169,-8.096325E-05
428.5169,-8.092183E-05
428.6169,-8.089546E-05
428.7169,-8.08738E-05
428.817,-8.087474E-05
428.917,-8.081635E-05
429.017,-8.080599E-05
429.117,-8.079845E-05
429.217,-8.073818E-05
429.317,-8.071936E-05
429.417,-8.068074E-05
429.517,-8.064119E-05
429.617,-8.06346E-05
429.717,-8.061953E-05
429.817,-8.058092E-05
429.917,-8.054137E-05
430.017,-8.054042E-05
430.117,-8.048769E-05
430.217,-8.046979E-05
430.317,-8.046885E-05
430.4171,-8.042553E-05
430.5171,-8.03662E-05
430.6171,-8.037845E-05
430.7171,-8.03549E-05
430.8171,-8.031441E-05
430.9171,-8.029275E-05
431.0171,-8.026355E-05
431.1171,-8.024002E-05
431.2171,-8.021741E-05
431.3171,-8.01901E-05
431.4171,-8.017315E-05
431.5171,-8.016278E-05
431.6171,-8.00997E-05
431.7171,-8.006674E-05
431.8171,-8.006485E-05
431.9171,-8.005166E-05
432.0172,-7.999516E-05
432.1172,-7.997256E-05
432.2172,-7.996973E-05
432.3172,-7.994713E-05
432.4172,-7.991888E-05
432.5172,-7.989722E-05
432.6172,-7.989533E-05
432.7172,-7.989533E-05
432.8172,-7.985767E-05
432.9172,-7.980116E-05
433.0172,-7.979269E-05
433.1172,-7.978138E-05
433.2172,-7.974089E-05
433.3172,-7.97164E-05
433.4172,-7.969287E-05
433.5172,-7.964578E-05
433.6172,-7.962318E-05
433.7173,-7.963542E-05
433.8173,-7.957892E-05
433.9173,-7.953936E-05
434.0173,-7.9529E-05
434.1173,-7.94998E-05
434.2173,-7.949134E-05
434.3173,-7.946025E-05
434.4173,-7.940563E-05
434.5173,-7.939811E-05
434.6173,-7.939339E-05
434.7173,-7.934725E-05
434.8173,-7.931241E-05
434.9173,-7.930392E-05
435.0173,-7.926908E-05
435.1173,-7.925402E-05
435.2173,-7.923048E-05
435.3174,-7.918998E-05
435.4174,-7.915137E-05
435.5174,-7.915325E-05
435.6174,-7.911371E-05
435.7174,-7.909675E-05
435.8174,-7.907415E-05
435.9174,-7.903271E-05
436.0174,-7.899692E-05
436.1174,-7.899316E-05
436.2174,-7.896396E-05
436.3174,-7.893383E-05
436.4174,-7.891217E-05
436.5174,-7.887921E-05
436.6174,-7.882741E-05
436.7174,-7.881047E-05
436.8174,-7.878974E-05
436.9174,-7.875679E-05
437.0175,-7.874548E-05
437.1175,-7.870029E-05
437.2175,-7.868427E-05
437.3175,-7.86918E-05
437.4175,-7.864189E-05
437.5175,-7.859857E-05
437.6175,-7.860046E-05
437.7175,-7.857314E-05
437.8175,-7.85383E-05
437.9175,-7.853171E-05
438.0175,-7.847239E-05
438.1175,-7.846674E-05
438.2175,-7.845637E-05
438.3175,-7.842624E-05
438.4175,-7.836314E-05
438.5175,-7.837162E-05
438.6176,-7.835278E-05
438.7176,-7.832358E-05
438.8176,-7.828309E-05
438.9176,-7.826426E-05
439.0176,-7.822095E-05
439.1176,-7.82313E-05
439.2176,-7.821812E-05
439.3176,-7.81842E-05
439.4176,-7.815313E-05
439.5176,-7.813148E-05
439.6176,-7.809568E-05
439.7176,-7.808062E-05
439.8176,-7.805613E-05
439.9176,-7.799398E-05
440.0176,-7.798267E-05
440.1176,-7.794407E-05
440.2177,-7.795442E-05
440.3177,-7.794595E-05
440.4177,-7.788756E-05
440.5177,-7.785366E-05
440.6177,-7.783577E-05
440.7177,-7.781034E-05
440.8177,-7.77981E-05
440.9177,-7.778209E-05
441.0177,-7.771428E-05
441.1177,-7.768698E-05
441.2177,-7.768698E-05
441.3177,-7.76493E-05
441.4177,-7.760223E-05
441.5177,-7.761634E-05
441.6177,-7.760975E-05
441.7177,-7.755702E-05
441.8177,-7.754195E-05
441.9178,-7.751747E-05
442.0178,-7.748356E-05
442.1178,-7.746943E-05
442.2178,-7.744495E-05
442.3178,-7.741105E-05
442.4178,-7.740351E-05
442.5178,-7.739504E-05
442.6178,-7.73536E-05
442.7178,-7.732723E-05
442.8178,-7.731499E-05
442.9178,-7.72858E-05
443.0178,-7.726132E-05
443.1178,-7.723023E-05
443.2178,-7.719633E-05
443.3178,-7.718409E-05
443.4178,-7.717939E-05
443.5179,-7.715113E-05
443.6179,-7.710499E-05
443.7179,-7.70918E-05
443.8179,-7.706544E-05
443.9179,-7.703813E-05
444.0179,-7.703435E-05
444.1179,-7.699292E-05
444.2179,-7.701269E-05
444.3179,-7.700516E-05
444.4179,-7.693642E-05
444.5179,-7.690628E-05
444.6179,-7.692512E-05
444.7179,-7.688556E-05
444.8179,-7.681682E-05
444.9179,-7.682153E-05
445.0179,-7.678669E-05
445.118,-7.675937E-05
445.218,-7.673677E-05
445.318,-7.670005E-05
445.418,-7.668027E-05
445.518,-7.669533E-05
445.618,-7.664166E-05
445.718,-7.658892E-05
445.818,-7.658892E-05
445.918,-7.656914E-05
446.018,-7.654184E-05
446.118,-7.651452E-05
446.218,-7.647779E-05
446.318,-7.646555E-05
446.418,-7.646743E-05
446.518,-7.641281E-05
446.618,-7.636196E-05
446.718,-7.636855E-05
446.8181,-7.634878E-05
446.9181,-7.6329E-05
447.0181,-7.629886E-05
447.1181,-7.627155E-05
447.2181,-7.623954E-05
447.3181,-7.623388E-05
447.4181,-7.624518E-05
447.5181,-7.616514E-05
447.6181,-7.614066E-05
447.7181,-7.614631E-05
447.8181,-7.611335E-05
447.9181,-7.609545E-05
448.0181,-7.607945E-05
448.1181,-7.602671E-05
448.2181,-7.602294E-05
448.3181,-7.600787E-05
448.4182,-7.59636E-05
448.5182,-7.593723E-05
448.6182,-7.594007E-05
448.7182,-7.592217E-05
448.8182,-7.590427E-05
448.9182,-7.586473E-05
449.0182,-7.58167E-05
449.1182,-7.581199E-05
449.2182,-7.579692E-05
449.3182,-7.575172E-05
449.4182,-7.573854E-05
449.5182,-7.572911E-05
449.6182,-7.568297E-05
449.7182,-7.566414E-05
449.8182,-7.564154E-05
449.9182,-7.562836E-05
450.0182,-7.561517E-05
450.1183,-7.559727E-05
450.2183,-7.5521E-05
450.3183,-7.553606E-05
450.4183,-7.553512E-05
450.5183,-7.545319E-05
450.6183,-7.546355E-05
450.7183,-7.548332E-05
450.8183,-7.539104E-05
450.9183,-7.537691E-05
451.0183,-7.541364E-05
451.1183,-7.540893E-05
451.2183,-7.537032E-05
451.3183,-7.530722E-05
451.4183,-7.53383E-05
451.5183,-7.530533E-05
451.6183,-7.524884E-05
451.7184,-7.523188E-05
451.8184,-7.517632E-05
451.9184,-7.516973E-05
452.0184,-7.516031E-05
452.1184,-7.513677E-05
452.2184,-7.508497E-05
452.3184,-7.50586E-05
452.4184,-7.502941E-05
452.5184,-7.501246E-05
452.6184,-7.501057E-05
452.7184,-7.49682E-05
452.8184,-7.494371E-05
452.9184,-7.492016E-05
453.0184,-7.489474E-05
453.1184,-7.48825E-05
453.2184,-7.486931E-05
453.3185,-7.482882E-05
453.4185,-7.480528E-05
453.5185,-7.479398E-05
453.6185,-7.476761E-05
453.7185,-7.474972E-05
453.8185,-7.4729E-05
453.9185,-7.469415E-05
454.0185,-7.467249E-05
454.1185,-7.466025E-05
454.2185,-7.462447E-05
454.3185,-7.463012E-05
454.4185,-7.460846E-05
454.5185,-7.454254E-05
454.6185,-7.458492E-05
454.7185,-7.457173E-05
454.8185,-7.451428E-05
454.9185,-7.447379E-05
455.0186,-7.448415E-05
455.1186,-7.447379E-05
455.2186,-7.444271E-05
455.3186,-7.441916E-05
455.4186,-7.437209E-05
455.5186,-7.435701E-05
455.6186,-7.435136E-05
455.7186,-7.429204E-05
455.8186,-7.429957E-05
455.9186,-7.430239E-05
456.0186,-7.424401E-05
456.1186,-7.42101E-05
456.2186,-7.419504E-05
456.3186,-7.416584E-05
456.4186,-7.413194E-05
456.5186,-7.414231E-05
456.6187,-7.409709E-05
456.7187,-7.406696E-05
456.8187,-7.405001E-05
456.9187,-7.40227E-05
457.0187,-7.401611E-05
457.1187,-7.400009E-05
457.2187,-7.39549E-05
457.3187,-7.391063E-05
457.4187,-7.391157E-05
457.5187,-7.390781E-05
457.6187,-7.38739E-05
457.7187,-7.384284E-05
457.8187,-7.381175E-05
457.9187,-7.37835E-05
458.0187,-7.380799E-05
458.1187,-7.377032E-05
458.2188,-7.371663E-05
458.3188,-7.368367E-05
458.4188,-7.368556E-05
458.5188,-7.365825E-05
458.6188,-7.366673E-05
458.7188,-7.362811E-05
458.8188,-7.357538E-05
458.9188,-7.357255E-05
459.0188,-7.355089E-05
459.1188,-7.351887E-05
459.2188,-7.350664E-05
459.3188,-7.34991E-05
459.4188,-7.347838E-05
459.5188,-7.344731E-05
459.6188,-7.341622E-05
459.7188,-7.338326E-05
459.8188,-7.335878E-05
459.9189,-7.333054E-05
460.0189,-7.332865E-05
460.1189,-7.328721E-05
460.2189,-7.329191E-05
460.3189,-7.325142E-05
460.4189,-7.322035E-05
460.5189,-7.322694E-05
460.6189,-7.319021E-05
460.7189,-7.318173E-05
460.8189,-7.314595E-05
460.9189,-7.309509E-05
461.0189,-7.309509E-05
461.1189,-7.309227E-05
461.2189,-7.306307E-05
461.3189,-7.302164E-05
461.4189,-7.302918E-05
461.519,-7.300374E-05
461.619,-7.29642E-05
461.719,-7.29576E-05
461.819,-7.290863E-05
461.919,-7.290392E-05
462.019,-7.291146E-05
462.119,-7.284553E-05
462.219,-7.282294E-05
462.319,-7.282294E-05
462.419,-7.278809E-05
462.519,-7.27702E-05
462.619,-7.276172E-05
462.719,-7.271558E-05
462.819,-7.267037E-05
462.919,-7.270804E-05
463.019,-7.26732E-05
463.119,-7.264494E-05
463.2191,-7.26054E-05
463.3191,-7.258845E-05
463.4191,-7.259315E-05
463.5191,-7.255642E-05
463.6191,-7.249615E-05
463.7191,-7.248956E-05
463.8191,-7.251311E-05
463.9191,-7.245849E-05
464.0191,-7.242175E-05
464.1191,-7.241705E-05
464.2191,-7.239632E-05
464.3191,-7.235301E-05
464.4191,-7.234736E-05
464.5191,-7.228991E-05
464.6191,-7.228238E-05
464.7191,-7.229086E-05
464.8192,-7.226166E-05
464.9192,-7.221929E-05
465.0192,-7.219857E-05
465.1192,-7.219292E-05
465.2192,-7.218162E-05
465.3192,-7.214207E-05
465.4192,-7.213359E-05
465.5192,-7.209874E-05
465.6192,-7.20865E-05
465.7192,-7.207708E-05
465.8192,-7.205825E-05
465.9192,-7.203659E-05
466.0192,-7.199797E-05
466.1192,-7.19716E-05
466.2192,-7.197726E-05
466.3192,-7.194901E-05
466.4193,-7.192264E-05
466.5193,-7.187932E-05
466.6193,-7.188968E-05
466.7193,-7.186519E-05
466.8193,-7.185013E-05
466.9193,-7.182941E-05
467.0193,-7.178891E-05
467.1193,-7.177667E-05
467.2193,-7.177572E-05
467.3193,-7.175784E-05
467.4193,-7.170886E-05
467.5193,-7.172205E-05
467.6193,-7.168249E-05
467.7193,-7.166178E-05
467.8193,-7.163447E-05
467.9193,-7.162034E-05
468.0193,-7.160527E-05
468.1194,-7.158833E-05
468.2194,-7.154689E-05
468.3194,-7.151769E-05
468.4194,-7.153465E-05
468.5194,-7.150828E-05
468.6194,-7.146213E-05
468.7194,-7.14546E-05
468.8194,-7.143859E-05
468.9194,-7.140563E-05
469.0194,-7.140939E-05
469.1194,-7.135666E-05
469.2194,-7.133123E-05
469.3194,-7.135854E-05
469.4194,-7.131899E-05
469.5194,-7.128227E-05
469.6194,-7.125966E-05
469.7195,-7.124741E-05
469.8195,-7.122481E-05
469.9195,-7.122011E-05
470.0195,-7.117867E-05
470.1195,-7.114195E-05
470.2195,-7.114006E-05
470.3195,-7.111558E-05
470.4195,-7.10845E-05
470.5195,-7.108074E-05
470.6195,-7.10619E-05
470.7195,-7.10214E-05
470.8195,-7.099692E-05
470.9195,-7.097996E-05
471.0195,-7.09649E-05
471.1195,-7.094042E-05
471.2195,-7.091594E-05
471.3195,-7.090934E-05
471.4196,-7.087825E-05
471.5196,-7.085189E-05
471.6196,-7.081893E-05
471.7196,-7.082835E-05
471.8196,-7.080857E-05
471.9196,-7.075018E-05
472.0196,-7.073982E-05
472.1196,-7.074358E-05
472.2196,-7.072947E-05
472.3196,-7.06852E-05
472.4196,-7.066355E-05
472.5196,-7.065789E-05
472.6196,-7.061363E-05
472.7196,-7.061834E-05
472.8196,-7.055995E-05
472.9196,-7.056089E-05
473.0197,-7.053264E-05
473.1197,-7.04865E-05
473.2197,-7.050816E-05
473.3197,-7.049309E-05
473.4197,-7.046106E-05
473.5197,-7.041022E-05
473.6197,-7.041964E-05
473.7197,-7.04074E-05
473.8197,-7.035842E-05
473.9197,-7.035277E-05
474.0197,-7.032735E-05
474.1197,-7.029062E-05
474.2197,-7.02812E-05
474.3197,-7.025577E-05
474.4197,-7.023317E-05
474.5197,-7.022564E-05
474.6198,-7.020398E-05
474.7198,-7.015595E-05
474.8198,-7.01503E-05
474.9198,-7.014653E-05
475.0198,-7.009756E-05
475.1198,-7.007779E-05
475.2198,-7.007967E-05
475.3198,-7.006084E-05
475.4198,-7.005048E-05
475.5198,-7.001092E-05
475.6198,-6.999303E-05
475.7198,-6.999585E-05
475.8198,-6.997702E-05
475.9198,-6.993747E-05
476.0198,-6.989791E-05
476.1198,-6.992052E-05
476.2198,-6.989791E-05
476.3199,-6.985836E-05
476.4199,-6.98367E-05
476.5199,-6.983388E-05
476.6199,-6.982729E-05
476.7199,-6.976984E-05
476.8199,-6.975383E-05
476.9199,-6.972087E-05
477.0199,-6.973028E-05
477.1199,-6.968415E-05
477.2199,-6.967944E-05
477.3199,-6.964365E-05
477.4199,-6.960975E-05
477.5199,-6.959656E-05
477.6199,-6.959091E-05
477.7199,-6.957961E-05
477.8199,-6.953252E-05
477.92,-6.95297E-05
478.02,-6.950238E-05
478.12,-6.947979E-05
478.22,-6.947319E-05
478.32,-6.94327E-05
478.42,-6.939974E-05
478.52,-6.941198E-05
478.62,-6.938561E-05
478.72,-6.936583E-05
478.82,-6.935642E-05
478.92,-6.933382E-05
479.02,-6.930556E-05
479.12,-6.928391E-05
479.22,-6.927355E-05
479.32,-6.925471E-05
479.42,-6.921987E-05
479.5201,-6.918503E-05
479.6201,-6.916525E-05
479.7201,-6.919727E-05
479.8201,-6.915583E-05
479.9201,-6.912099E-05
480.0201,-6.911628E-05
480.1201,-6.908237E-05
480.2201,-6.9056E-05
480.3201,-6.9056E-05
480.4201,-6.902399E-05
480.5201,-6.897502E-05
480.6201,-6.898161E-05
480.7201,-6.898161E-05
480.8201,-6.893359E-05
480.9201,-6.88978E-05
481.0201,-6.891003E-05
481.1201,-6.891003E-05
481.2202,-6.887237E-05
481.3202,-6.885165E-05
481.4202,-6.88074E-05
481.5202,-6.880456E-05
481.6202,-6.880362E-05
481.7202,-6.877443E-05
481.8202,-6.87377E-05
481.9202,-6.870569E-05
482.0202,-6.871134E-05
482.1202,-6.868591E-05
482.2202,-6.865859E-05
482.3202,-6.864071E-05
482.4202,-6.861339E-05
482.5202,-6.861246E-05
482.6202,-6.856913E-05
482.7202,-6.857007E-05
482.8203,-6.854936E-05
482.9203,-6.852582E-05
483.0203,-6.850039E-05
483.1203,-6.848626E-05
483.2203,-6.845613E-05
483.3203,-6.845425E-05
483.4203,-6.843635E-05
483.5203,-6.842034E-05
483.6203,-6.838267E-05
483.7203,-6.839492E-05
483.8203,-6.834217E-05
483.9203,-6.833558E-05
484.0203,-6.834406E-05
484.1203,-6.828473E-05
484.2203,-6.825742E-05
484.3203,-6.825083E-05
484.4203,-6.825554E-05
484.5204,-6.821976E-05
484.6204,-6.818679E-05
484.7204,-6.817266E-05
484.8204,-6.816325E-05
484.9204,-6.815288E-05
485.0204,-6.808885E-05
485.1204,-6.807567E-05
485.2204,-6.812369E-05
485.3204,-6.812558E-05
485.4204,-6.806154E-05
485.5204,-6.803517E-05
485.6204,-6.803047E-05
485.7204,-6.802576E-05
485.8204,-6.799374E-05
485.9204,-6.795983E-05
486.0204,-6.79231E-05
486.1205,-6.791369E-05
486.2205,-6.790427E-05
486.3205,-6.787037E-05
486.4205,-6.784588E-05
486.5205,-6.78327E-05
486.6205,-6.781574E-05
486.7205,-6.778938E-05
486.8205,-6.779221E-05
486.9205,-6.774512E-05
487.0205,-6.773193E-05
487.1205,-6.771593E-05
487.2205,-6.768391E-05
487.3205,-6.768201E-05
487.4205,-6.76679E-05
487.5205,-6.761045E-05
487.6205,-6.760104E-05
487.7206,-6.758032E-05
487.8206,-6.754736E-05
487.9206,-6.754642E-05
488.0206,-6.752758E-05
488.1206,-6.74965E-05
488.2206,-6.749744E-05
488.3206,-6.749462E-05
488.4206,-6.740799E-05
488.5206,-6.743058E-05
488.6206,-6.744282E-05
488.7206,-6.741645E-05
488.8206,-6.737596E-05
488.9206,-6.737596E-05
489.0206,-6.733923E-05
489.1206,-6.735148E-05
489.2206,-6.73496E-05
489.3206,-6.728461E-05
489.4207,-6.725448E-05
489.5207,-6.724789E-05
489.6207,-6.722905E-05
489.7207,-6.720456E-05
489.8207,-6.720456E-05
489.9207,-6.715371E-05
490.0207,-6.711886E-05
490.1207,-6.709815E-05
490.2207,-6.710285E-05
490.3207,-6.70699E-05
490.4207,-6.706708E-05
490.5207,-6.701433E-05
490.6207,-6.702375E-05
490.7207,-6.703223E-05
490.8207,-6.700209E-05
490.9207,-6.693428E-05
491.0208,-6.694276E-05
491.1208,-6.691922E-05
491.2208,-6.689002E-05
491.3208,-6.690604E-05
491.4208,-6.686931E-05
491.5208,-6.682881E-05
491.6208,-6.683446E-05
491.7208,-6.680715E-05
491.8208,-6.679397E-05
491.9208,-6.677043E-05
492.0208,-6.675913E-05
492.1208,-6.671863E-05
492.2208,-6.670733E-05
492.3208,-6.669791E-05
492.4208,-6.665271E-05
492.5208,-6.666307E-05
492.6208,-6.661221E-05
492.7209,-6.658867E-05
492.8209,-6.657925E-05
492.9209,-6.658396E-05
493.0209,-6.656608E-05
493.1209,-6.655006E-05
493.2209,-6.651522E-05
493.3209,-6.648791E-05
493.4209,-6.648603E-05
493.5209,-6.64945E-05
493.6209,-6.644836E-05
493.7209,-6.643705E-05
493.8209,-6.641068E-05
493.9209,-6.640975E-05
494.0209,-6.641539E-05
494.1209,-6.638243E-05
494.2209,-6.63636E-05
494.321,-6.63457E-05
494.421,-6.633346E-05
494.521,-6.629674E-05
494.621,-6.630333E-05
494.721,-6.627602E-05
494.821,-6.621386E-05
494.921,-6.623835E-05
495.021,-6.622799E-05
495.121,-6.617713E-05
495.221,-6.617054E-05
495.321,-6.617054E-05
495.421,-6.61244E-05
495.521,-6.609897E-05
495.621,-6.609803E-05
495.721,-6.609426E-05
495.821,-6.607542E-05
495.9211,-6.606413E-05
496.0211,-6.603494E-05
496.1211,-6.599727E-05
496.2211,-6.599821E-05
496.3211,-6.596996E-05
496.4211,-6.596148E-05
496.5211,-6.594924E-05
496.6211,-6.590592E-05
496.7211,-6.591346E-05
496.8211,-6.590027E-05
496.9211,-6.586072E-05
497.0211,-6.582775E-05
497.1211,-6.5856E-05
497.2211,-6.581269E-05
497.3211,-6.576936E-05
497.4211,-6.578067E-05
497.5211,-6.575336E-05
497.6212,-6.574018E-05
497.7212,-6.571192E-05
497.8212,-6.570533E-05
497.9212,-6.568461E-05
498.0212,-6.569686E-05
498.1212,-6.564317E-05
498.2212,-6.561116E-05
498.3212,-6.562528E-05
498.4212,-6.559044E-05
498.5212,-6.557914E-05
498.6212,-6.555089E-05
498.7212,-6.551509E-05
498.8212,-6.550286E-05
498.9212,-6.55038E-05
499.0212,-6.548403E-05
499.1212,-6.544824E-05
499.2213,-6.543317E-05
499.3213,-6.542845E-05
499.4213,-6.536631E-05
499.5213,-6.536631E-05
499.6213,-6.537289E-05
499.7213,-6.534558E-05
499.8213,-6.531263E-05
499.9213,-6.530416E-05
500.0213,-6.528626E-05
500.1213,-6.527025E-05
500.2213,-6.525141E-05
500.3213,-6.522222E-05
500.4213,-6.520621E-05
500.5213,-6.517702E-05
500.6213,-6.516289E-05
500.7213,-6.516101E-05
500.8214,-6.513182E-05
500.9214,-6.510544E-05
501.0214,-6.507531E-05
501.1214,-6.506871E-05
501.2214,-6.504706E-05
501.3214,-6.503764E-05
501.4214,-6.502728E-05
501.5214,-6.498302E-05
501.6214,-6.496325E-05
501.7214,-6.497925E-05
501.8214,-6.49463E-05
501.9214,-6.491334E-05
502.0214,-6.490486E-05
502.1214,-6.487002E-05
502.2214,-6.48832E-05
502.3214,-6.485777E-05
502.4214,-6.47975E-05
502.5215,-6.478713E-05
502.6215,-6.482104E-05
502.7215,-6.477772E-05
502.8215,-6.473441E-05
502.9215,-6.473723E-05
503.0215,-6.472969E-05
503.1215,-6.470333E-05
503.2215,-6.469015E-05
503.3215,-6.46713E-05
503.4215,-6.465059E-05
503.5215,-6.465624E-05
503.6215,-6.459974E-05
503.7215,-6.456584E-05
503.8215,-6.458184E-05
503.9215,-6.456207E-05
504.0215,-6.453852E-05
504.1216,-6.454041E-05
504.2216,-6.45131E-05
504.3216,-6.448202E-05
504.4216,-6.446977E-05
504.5216,-6.445566E-05
504.6216,-6.44274E-05
504.7216,-6.441421E-05
504.8216,-6.440668E-05
504.9216,-6.437561E-05
505.0216,-6.434735E-05
505.1216,-6.435772E-05
505.2216,-6.431063E-05
505.3216,-6.430026E-05
505.4216,-6.427483E-05
505.5216,-6.4256E-05
505.6216,-6.425223E-05
505.7216,-6.423435E-05
505.8217,-6.419855E-05
505.9217,-6.420515E-05
506.0217,-6.418255E-05
506.1217,-6.415619E-05
506.2217,-6.411946E-05
506.3217,-6.411098E-05
506.4217,-6.409873E-05
506.5217,-6.409591E-05
506.6217,-6.408554E-05
506.7217,-6.402151E-05
506.8217,-6.403092E-05
506.9217,-6.402339E-05
507.0217,-6.399985E-05
507.1217,-6.398572E-05
507.2217,-6.39603E-05
507.3217,-6.393958E-05
507.4218,-6.392263E-05
507.5218,-6.391886E-05
507.6218,-6.388401E-05
507.7218,-6.387366E-05
507.8218,-6.386895E-05
507.9218,-6.3852E-05
508.0218,-6.383599E-05
508.1218,-6.385671E-05
508.2218,-6.379926E-05
508.3218,-6.377478E-05
508.4218,-6.375783E-05
508.5218,-6.374747E-05
508.6218,-6.373711E-05
508.7218,-6.373523E-05
508.8218,-6.367872E-05
508.9218,-6.366365E-05
509.0219,-6.367872E-05
509.1219,-6.364765E-05
509.2219,-6.364012E-05
509.3219,-6.361751E-05
509.4219,-6.35723E-05
509.5219,-6.356948E-05
509.6219,-6.35949E-05
509.7219,-6.355253E-05
509.8219,-6.351392E-05
509.9219,-6.352428E-05
510.0219,-6.351298E-05
510.1219,-6.347249E-05
510.2219,-6.347061E-05
510.3219,-6.343952E-05
510.4219,-6.342257E-05
510.5219,-6.34367E-05
510.6219,-6.338114E-05
510.722,-6.33576E-05
510.822,-6.339056E-05
510.922,-6.336984E-05
511.022,-6.333311E-05
511.122,-6.333311E-05
511.222,-6.330674E-05
511.322,-6.330203E-05
511.422,-6.327943E-05
511.522,-6.325777E-05
511.622,-6.322952E-05
511.722,-6.322481E-05
511.822,-6.320221E-05
511.922,-6.316737E-05
512.022,-6.316454E-05
512.122,-6.315041E-05
512.222,-6.312875E-05
512.322,-6.311556E-05
512.4219,-6.308166E-05
512.5219,-6.307224E-05
512.6219,-6.305906E-05
512.7219,-6.305154E-05
512.8218,-6.300727E-05
512.9218,-6.299785E-05
513.0218,-6.297525E-05
513.1218,-6.296394E-05
513.2217,-6.297242E-05
513.3217,-6.29131E-05
513.4217,-6.288485E-05
513.5217,-6.289426E-05
513.6216,-6.288297E-05
513.7216,-6.288013E-05
513.8216,-6.284152E-05
513.9216,-6.282551E-05
514.0215,-6.278408E-05
514.1215,-6.27869E-05
514.2215,-6.277089E-05
514.3215,-6.274453E-05
514.4214,-6.27304E-05
514.5214,-6.272098E-05
514.6214,-6.268143E-05
514.7214,-6.268331E-05
514.8214,-6.266919E-05
514.9213,-6.265035E-05
515.0213,-6.261739E-05
515.1213,-6.261269E-05
515.2213,-6.260609E-05
515.3212,-6.259573E-05
515.4212,-6.256371E-05
515.5212,-6.25364E-05
515.6212,-6.252793E-05
515.7211,-6.250438E-05
515.8211,-6.24912E-05
515.9211,-6.246859E-05
516.0211,-6.246672E-05
516.121,-6.245541E-05
516.221,-6.242528E-05
516.321,-6.241398E-05
516.421,-6.236877E-05
516.5209,-6.237442E-05
516.6209,-6.238384E-05
516.7209,-6.235559E-05
516.8209,-6.231698E-05
516.9208,-6.230379E-05
517.0208,-6.229155E-05
517.1208,-6.228213E-05
517.2208,-6.227178E-05
517.3207,-6.223034E-05
517.4207,-6.22002E-05
517.5207,-6.220114E-05
517.6207,-6.220303E-05
517.7206,-6.216442E-05
517.8206,-6.215877E-05
517.9206,-6.212205E-05
518.0206,-6.210792E-05
518.1205,-6.212015E-05
518.2205,-6.209473E-05
518.3205,-6.2042E-05
518.4205,-6.206176E-05
518.5204,-6.20533E-05
518.6204,-6.202034E-05
518.7204,-6.20307E-05
518.8204,-6.20015E-05
518.9203,-6.198455E-05
519.0203,-6.195818E-05
519.1203,-6.196195E-05
519.2203,-6.191956E-05
519.3203,-6.188755E-05
519.4202,-6.188661E-05
519.5202,-6.186024E-05
519.6202,-6.18593E-05
519.7202,-6.184988E-05
519.8201,-6.179997E-05
519.9201,-6.180751E-05
520.0201,-6.180751E-05
520.1201,-6.176606E-05
520.22,-6.172463E-05
520.32,-6.173876E-05
520.42,-6.173969E-05
520.52,-6.172651E-05
520.6199,-6.169355E-05
520.7199,-6.164929E-05
520.8199,-6.165683E-05
520.9199,-6.166154E-05
521.0198,-6.163705E-05
521.1198,-6.160315E-05
521.2198,-6.155889E-05
521.3198,-6.1557E-05
521.4197,-6.156548E-05
521.5197,-6.155983E-05
521.6197,-6.150332E-05
521.7197,-6.150991E-05
521.8196,-6.147978E-05
521.9196,-6.147036E-05
522.0196,-6.146942E-05
522.1196,-6.143928E-05
522.2195,-6.142045E-05
522.3195,-6.13922E-05
522.4195,-6.139596E-05
522.5195,-6.13696E-05
522.6194,-6.137148E-05
522.7194,-6.135547E-05
522.8194,-6.130461E-05
522.9194,-6.132345E-05
523.0193,-6.129991E-05
523.1193,-6.127636E-05
523.2193,-6.126789E-05
523.3193,-6.121986E-05
523.4193,-6.122175E-05
523.5192,-6.121327E-05
523.6192,-6.118973E-05
523.7192,-6.115206E-05
523.8192,-6.115865E-05
523.9191,-6.113981E-05
524.0191,-6.112851E-05
524.1191,-6.111439E-05
524.2191,-6.108331E-05
524.319,-6.10334E-05
524.419,-6.105317E-05
524.519,-6.1056E-05
524.619,-6.100892E-05
524.7189,-6.098631E-05
524.8189,-6.098537E-05
524.9189,-6.096088E-05
525.0189,-6.095806E-05
525.1188,-6.095994E-05
525.2188,-6.092133E-05
525.3188,-6.090344E-05
525.4188,-6.090532E-05
525.5187,-6.087896E-05
525.6187,-6.088931E-05
525.7187,-6.085824E-05
525.8187,-6.083469E-05
525.9186,-6.081398E-05
526.0186,-6.082999E-05
526.1186,-6.079043E-05
526.2186,-6.079891E-05
526.3185,-6.081868E-05
526.4185,-6.076124E-05
526.5185,-6.072451E-05
526.6185,-6.074335E-05
526.7184,-6.072639E-05
526.8184,-6.071416E-05
526.9184,-6.068684E-05
527.0184,-6.065105E-05
527.1183,-6.063599E-05
527.2183,-6.065859E-05
527.3183,-6.06294E-05
527.4183,-6.061998E-05
527.5182,-6.058702E-05
527.6182,-6.055689E-05
527.7182,-6.0555E-05
527.8182,-6.056253E-05
527.9182,-6.05324E-05
528.0181,-6.05098E-05
528.1181,-6.047495E-05
528.2181,-6.04693E-05
528.3181,-6.04693E-05
528.418,-6.047589E-05
528.518,-6.042316E-05
528.618,-6.039679E-05
528.718,-6.043728E-05
528.8179,-6.041091E-05
528.9179,-6.037607E-05
529.0179,-6.036477E-05
529.1179,-6.034311E-05
529.2178,-6.03271E-05
529.3178,-6.032051E-05
529.4178,-6.02932E-05
529.5178,-6.027719E-05
529.6177,-6.028378E-05
529.7177,-6.024705E-05
529.8177,-6.021315E-05
529.9177,-6.022822E-05
530.0176,-6.020467E-05
530.1176,-6.019054E-05
530.2176,-6.014629E-05
530.3176,-6.014064E-05
530.4175,-6.011239E-05
530.5175,-6.013404E-05
530.6175,-6.011144E-05
530.7175,-6.005494E-05
530.8174,-6.00766E-05
530.9174,-6.006153E-05
531.0174,-6.003516E-05
531.1174,-6.003611E-05
531.2173,-6.000032E-05
531.3173,-5.998054E-05
531.4173,-5.997489E-05
531.5173,-5.998148E-05
531.6172,-5.992969E-05
531.7172,-5.99118E-05
531.8172,-5.990238E-05
531.9172,-5.989108E-05
532.0172,-5.988072E-05
532.1171,-5.987319E-05
532.2171,-5.982139E-05
532.3171,-5.981762E-05
532.4171,-5.980821E-05
532.517,-5.978937E-05
532.617,-5.976771E-05
532.717,-5.976489E-05
532.817,-5.972251E-05
532.9169,-5.974135E-05
533.0169,-5.973475E-05
533.1169,-5.970085E-05
533.2169,-5.967731E-05
533.3168,-5.965565E-05
533.4168,-5.965941E-05
533.5168,-5.965094E-05
533.6168,-5.963493E-05
533.7167,-5.960762E-05
533.8167,-5.958313E-05
533.9167,-5.956242E-05
534.0167,-5.955112E-05
534.1166,-5.955865E-05
534.2166,-5.953981E-05
534.3166,-5.949743E-05
534.4166,-5.948613E-05
534.5165,-5.948237E-05
534.6165,-5.947389E-05
534.7165,-5.945129E-05
534.8165,-5.945505E-05
534.9164,-5.939856E-05
535.0164,-5.938725E-05
535.1164,-5.939761E-05
535.2164,-5.936748E-05
535.3163,-5.937124E-05
535.4163,-5.934864E-05
535.5163,-5.930155E-05
535.6163,-5.932793E-05
535.7162,-5.931003E-05
535.8162,-5.925824E-05
535.9162,-5.92733E-05
536.0162,-5.926389E-05
536.1161,-5.922057E-05
536.2161,-5.921303E-05
536.3161,-5.920927E-05
536.4161,-5.919231E-05
536.5161,-5.916689E-05
536.616,-5.915559E-05
536.716,-5.913581E-05
536.816,-5.91311E-05
536.916,-5.913487E-05
537.0159,-5.911886E-05
537.1159,-5.906235E-05
537.2159,-5.906424E-05
537.3159,-5.906235E-05
537.4158,-5.906235E-05
537.5158,-5.905293E-05
537.6158,-5.900774E-05
537.7158,-5.899361E-05
537.8157,-5.900397E-05
537.9157,-5.899078E-05
538.0157,-5.89776E-05
538.1157,-5.894276E-05
538.2156,-5.891356E-05
538.3156,-5.890979E-05
538.4156,-5.893145E-05
538.5156,-5.888154E-05
538.6155,-5.884859E-05
538.7155,-5.887684E-05
538.8155,-5.885989E-05
538.9155,-5.887024E-05
539.0154,-5.884293E-05
539.1154,-5.881374E-05
539.2154,-5.881374E-05
539.3154,-5.87949E-05
539.4153,-5.876477E-05
539.5153,-5.877136E-05
539.6153,-5.875912E-05
539.7153,-5.874311E-05
539.8152,-5.870638E-05
539.9152,-5.872145E-05
540.0152,-5.870921E-05
540.1152,-5.869037E-05
540.2151,-5.867719E-05
540.3151,-5.866118E-05
540.4151,-5.863198E-05
540.5151,-5.866401E-05
540.6151,-5.862916E-05
540.715,-5.858678E-05
540.815,-5.85849E-05
540.915,-5.859149E-05
541.015,-5.858207E-05
541.1149,-5.854158E-05
541.2149,-5.854723E-05
541.3149,-5.85397E-05
541.4149,-5.856606E-05
541.5148,-5.852463E-05
541.6148,-5.847283E-05
541.7148,-5.848884E-05
541.8148,-5.845965E-05
541.9147,-5.844929E-05
542.0147,-5.84361E-05
542.1147,-5.844082E-05
542.2147,-5.839278E-05
542.3146,-5.841256E-05
542.4146,-5.839278E-05
542.5146,-5.836547E-05
542.6146,-5.834664E-05
542.7145,-5.834005E-05
542.8145,-5.830709E-05
542.9145,-5.831086E-05
543.0145,-5.828731E-05
543.1144,-5.829578E-05
543.2144,-5.828072E-05
543.3144,-5.824211E-05
543.4144,-5.822798E-05
543.5143,-5.822233E-05
543.6143,-5.820538E-05
543.7143,-5.818937E-05
543.8143,-5.816206E-05
543.9142,-5.817242E-05
544.0142,-5.81291E-05
544.1142,-5.81291E-05
544.2142,-5.812345E-05
544.3141,-5.810744E-05
544.4141,-5.809049E-05
544.5141,-5.806318E-05
544.6141,-5.806318E-05
544.7141,-5.805376E-05
544.814,-5.803587E-05
544.914,-5.801986E-05
545.014,-5.801515E-05
545.114,-5.79982E-05
545.2139,-5.797089E-05
545.3139,-5.799537E-05
545.4139,-5.797371E-05
545.5139,-5.792286E-05
545.6138,-5.790214E-05
545.7138,-5.790497E-05
545.8138,-5.788707E-05
545.9138,-5.786448E-05
546.0137,-5.786259E-05
546.1137,-5.78268E-05
546.2137,-5.78268E-05
546.3137,-5.781927E-05
546.4136,-5.779384E-05
546.5136,-5.778349E-05
546.6136,-5.779573E-05
546.7136,-5.773452E-05
546.8135,-5.774205E-05
546.9135,-5.773922E-05
547.0135,-5.771945E-05
547.1135,-5.770532E-05
547.2134,-5.770155E-05
547.3134,-5.76959E-05
547.4134,-5.7662E-05
547.5134,-5.765164E-05
547.6133,-5.76394E-05
547.7133,-5.761962E-05
547.8133,-5.761962E-05
547.9133,-5.760738E-05
548.0132,-5.757348E-05
548.1132,-5.757254E-05
548.2132,-5.755276E-05
548.3132,-5.752262E-05
548.4131,-5.752545E-05
548.5131,-5.751132E-05
548.6131,-5.750379E-05
548.7131,-5.748024E-05
548.813,-5.746047E-05
548.913,-5.743598E-05
549.013,-5.745199E-05
549.113,-5.742751E-05
549.213,-5.740773E-05
549.3129,-5.740773E-05
549.4129,-5.738042E-05
549.5129,-5.737007E-05
549.6129,-5.735405E-05
549.7128,-5.733428E-05
549.8128,-5.730038E-05
549.9128,-5.732957E-05
550.0128,-5.731356E-05
550.1127,-5.724858E-05
550.2127,-5.724293E-05
550.3127,-5.724952E-05
550.4127,-5.723728E-05
550.5126,-5.724293E-05
550.6126,-5.721939E-05
550.7126,-5.719114E-05
550.8126,-5.716759E-05
550.9125,-5.716665E-05
551.0125,-5.715347E-05
551.1125,-5.716383E-05
551.2125,-5.712239E-05
551.3124,-5.707813E-05
551.4124,-5.710073E-05
551.5124,-5.708283E-05
551.6124,-5.707153E-05
551.7123,-5.707813E-05
551.8123,-5.705553E-05
551.9123,-5.702728E-05
552.0123,-5.701785E-05
552.1122,-5.699996E-05
552.2122,-5.698113E-05
552.3122,-5.696418E-05
552.4122,-5.696889E-05
552.5121,-5.694628E-05
552.6121,-5.694158E-05
552.7121,-5.692274E-05
552.8121,-5.691521E-05
552.912,-5.690768E-05
553.012,-5.688413E-05
553.112,-5.686153E-05
553.212,-5.685211E-05
553.312,-5.684834E-05
553.4119,-5.681162E-05
553.5119,-5.680691E-05
553.6119,-5.682669E-05
553.7119,-5.678431E-05
553.8118,-5.675512E-05
553.9118,-5.676359E-05
554.0118,-5.674946E-05
554.1118,-5.670614E-05
554.2117,-5.671274E-05
554.3117,-5.671556E-05
554.4117,-5.663834E-05
554.5117,-5.665811E-05
554.6116,-5.666753E-05
554.7116,-5.665341E-05
554.8116,-5.660161E-05
554.9116,-5.661856E-05
555.0115,-5.659785E-05
555.1115,-5.659596E-05
555.2115,-5.65856E-05
555.3115,-5.653569E-05
555.4114,-5.652156E-05
555.5114,-5.652533E-05
555.6114,-5.649991E-05
555.7114,-5.650932E-05
555.8113,-5.648672E-05
555.9113,-5.646035E-05
556.0113,-5.644622E-05
556.1113,-5.643304E-05
556.2112,-5.63982E-05
556.3112,-5.640385E-05
556.4112,-5.640761E-05
556.5112,-5.638595E-05
556.6111,-5.636524E-05
556.7111,-5.638313E-05
556.8111,-5.634734E-05
556.9111,-5.633134E-05
557.011,-5.632098E-05
557.111,-5.631156E-05
557.211,-5.629649E-05
557.311,-5.63012E-05
557.4109,-5.624375E-05
557.5109,-5.625035E-05
557.6109,-5.62786E-05
557.7109,-5.625411E-05
557.8109,-5.621833E-05
557.9108,-5.622303E-05
558.0108,-5.622492E-05
558.1108,-5.617877E-05
558.2108,-5.617218E-05
558.3107,-5.616653E-05
558.4107,-5.615523E-05
558.5107,-5.615241E-05
558.6107,-5.611568E-05
558.7106,-5.611285E-05
558.8106,-5.609119E-05
558.9106,-5.610061E-05
559.0106,-5.608837E-05
559.1105,-5.606577E-05
559.2105,-5.60507E-05
559.3105,-5.602056E-05
559.4105,-5.599702E-05
559.5104,-5.601679E-05
559.6104,-5.598101E-05
559.7104,-5.595841E-05
559.8104,-5.595747E-05
559.9103,-5.595935E-05
560.0103,-5.59358E-05
560.1103,-5.593487E-05
560.2103,-5.589814E-05
560.3102,-5.588496E-05
560.4102,-5.589531E-05
560.5102,-5.588119E-05
560.6102,-5.587742E-05
560.7101,-5.586518E-05
560.8101,-5.580961E-05
560.9101,-5.580585E-05
561.0101,-5.583316E-05
561.11,-5.580114E-05
561.21,-5.57776E-05
561.31,-5.578136E-05
561.41,-5.577195E-05
561.5099,-5.571638E-05
561.6099,-5.574181E-05
561.7099,-5.573051E-05
561.8099,-5.569378E-05
561.9099,-5.567307E-05
562.0098,-5.567495E-05
562.1098,-5.566459E-05
562.2098,-5.566553E-05
562.3098,-5.563822E-05
562.4097,-5.561279E-05
562.5097,-5.56062E-05
562.6097,-5.562221E-05
562.7097,-5.557512E-05
562.8096,-5.558643E-05
562.9096,-5.555911E-05
563.0096,-5.558643E-05
563.1096,-5.558077E-05
563.2095,-5.553557E-05
563.3095,-5.552615E-05
563.4095,-5.552427E-05
563.5095,-5.552521E-05
563.6094,-5.550261E-05
563.7094,-5.547436E-05
563.8094,-5.546118E-05
563.9094,-5.543669E-05
564.0093,-5.544705E-05
564.1093,-5.546306E-05
564.2093,-5.540184E-05
564.3093,-5.54009E-05
564.4092,-5.537171E-05
564.5092,-5.537077E-05
564.6092,-5.537547E-05
564.7092,-5.536135E-05
564.8091,-5.531709E-05
564.9091,-5.533404E-05
565.0091,-5.533216E-05
565.1091,-5.530202E-05
565.209,-5.528507E-05
565.309,-5.528883E-05
565.409,-5.52813E-05
565.509,-5.525211E-05
565.6089,-5.524175E-05
565.7089,-5.520502E-05
565.8089,-5.522669E-05
565.9089,-5.521632E-05
566.0089,-5.518148E-05
566.1088,-5.516265E-05
566.2088,-5.51504E-05
566.3088,-5.513628E-05
566.4088,-5.514663E-05
566.5087,-5.513816E-05
566.6087,-5.508919E-05
566.7087,-5.509296E-05
566.8087,-5.510049E-05
566.9086,-5.508166E-05
567.0086,-5.506282E-05
567.1086,-5.504493E-05
567.2086,-5.501762E-05
567.3085,-5.503645E-05
567.4085,-5.504305E-05
567.5085,-5.499502E-05
567.6085,-5.497524E-05
567.7084,-5.499502E-05
567.8084,-5.495453E-05
567.9084,-5.496111E-05
568.0084,-5.496111E-05
568.1083,-5.491497E-05
568.2083,-5.490461E-05
568.3083,-5.492156E-05
568.4083,-5.490555E-05
568.5082,-5.489519E-05
568.6082,-5.488484E-05
568.7082,-5.487259E-05
568.8082,-5.484999E-05
568.9081,-5.48208E-05
569.0081,-5.481797E-05
569.1081,-5.479161E-05
569.2081,-5.479254E-05
569.308,-5.476053E-05
569.408,-5.473133E-05
569.508,-5.475676E-05
569.608,-5.47577E-05
569.7079,-5.471815E-05
569.8079,-5.470873E-05
569.9079,-5.46899E-05
570.0079,-5.466823E-05
570.1078,-5.46946E-05
570.2078,-5.465317E-05
570.3078,-5.463245E-05
570.4078,-5.462209E-05
570.5078,-5.461738E-05
570.6077,-5.460231E-05
570.7077,-5.461738E-05
570.8077,-5.458254E-05
570.9077,-5.456559E-05
571.0076,-5.455805E-05
571.1076,-5.455994E-05
571.2076,-5.451568E-05
571.3076,-5.452321E-05
571.4075,-5.450249E-05
571.5075,-5.446953E-05
571.6075,-5.448083E-05
571.7075,-5.445352E-05
571.8074,-5.44507E-05
571.9074,-5.445729E-05
572.0074,-5.442998E-05
572.1074,-5.440455E-05
572.2073,-5.439796E-05
572.3073,-5.438854E-05
572.4073,-5.437065E-05
572.5073,-5.436311E-05
572.6072,-5.436218E-05
572.7072,-5.43085E-05
572.8072,-5.432357E-05
572.9072,-5.432922E-05
573.0071,-5.429437E-05
573.1071,-5.424823E-05
573.2071,-5.428872E-05
573.3071,-5.427554E-05
573.407,-5.424728E-05
573.507,-5.422939E-05
573.607,-5.423786E-05
573.707,-5.421809E-05
573.8069,-5.420491E-05
573.9069,-5.417948E-05
574.0069,-5.419078E-05
574.1069,-5.417665E-05
574.2068,-5.412862E-05
574.3068,-5.413993E-05
574.4068,-5.417289E-05
574.5068,-5.413051E-05
574.6068,-5.409943E-05
574.7067,-5.411168E-05
574.8067,-5.410885E-05
574.9067,-5.407777E-05
575.0067,-5.406365E-05
575.1066,-5.405328E-05
575.2066,-5.403351E-05
575.3066,-5.401562E-05
575.4066,-5.40175E-05
575.5065,-5.399961E-05
575.6065,-5.398737E-05
575.7065,-5.397983E-05
575.8065,-5.397324E-05
575.9064,-5.396665E-05
576.0064,-5.395817E-05
576.1064,-5.39205E-05
576.2064,-5.394028E-05
576.3063,-5.388942E-05
576.4063,-5.390544E-05
576.5063,-5.39158E-05
576.6063,-5.388095E-05
576.7062,-5.387059E-05
576.8062,-5.385081E-05
576.9062,-5.383198E-05
577.0062,-5.38235E-05
577.1061,-5.382915E-05
577.2061,-5.382256E-05
577.3061,-5.377077E-05
577.4061,-5.378583E-05
577.506,-5.379808E-05
577.606,-5.371897E-05
577.706,-5.372557E-05
577.806,-5.374911E-05
577.9059,-5.373404E-05
578.0059,-5.368978E-05
578.1059,-5.370014E-05
578.2059,-5.370955E-05
578.3058,-5.367094E-05
578.4058,-5.366058E-05
578.5058,-5.365117E-05
578.6058,-5.365117E-05
578.7057,-5.362857E-05
578.8057,-5.360502E-05
578.9057,-5.360031E-05
579.0057,-5.362009E-05
579.1057,-5.357206E-05
579.2056,-5.355511E-05
579.3056,-5.354663E-05
579.4056,-5.353628E-05
579.5056,-5.352592E-05
579.6055,-5.352215E-05
579.7055,-5.346847E-05
579.8055,-5.34826E-05
579.9055,-5.351462E-05
580.0054,-5.347883E-05
580.1054,-5.34534E-05
580.2054,-5.345152E-05
580.3054,-5.345152E-05
580.4053,-5.343834E-05
580.5053,-5.342704E-05
580.6053,-5.341197E-05
580.7053,-5.339125E-05
580.8052,-5.338089E-05
580.9052,-5.338937E-05
581.0052,-5.335923E-05
581.1052,-5.337618E-05
581.2051,-5.33404E-05
581.3051,-5.331968E-05
581.4051,-5.331215E-05
581.5051,-5.329049E-05
581.605,-5.327636E-05
581.705,-5.326694E-05
581.805,-5.325752E-05
581.905,-5.323963E-05
582.0049,-5.322739E-05
582.1049,-5.325658E-05
582.2049,-5.323775E-05
582.3049,-5.320196E-05
582.4048,-5.320573E-05
582.5048,-5.319066E-05
582.6048,-5.318124E-05
582.7048,-5.317654E-05
582.8047,-5.314546E-05
582.9047,-5.313792E-05
583.0047,-5.313039E-05
583.1047,-5.311532E-05
583.2047,-5.309366E-05
583.3046,-5.308236E-05
583.4046,-5.307577E-05
583.5046,-5.303339E-05
583.6046,-5.305693E-05
583.7045,-5.303339E-05
583.8045,-5.300608E-05
583.9045,-5.299761E-05
584.0045,-5.298724E-05
584.1044,-5.299572E-05
584.2044,-5.297595E-05
584.3044,-5.295899E-05
584.4044,-5.291567E-05
584.5043,-5.293639E-05
584.6043,-5.294299E-05
584.7043,-5.291097E-05
584.8043,-5.28959E-05
584.9042,-5.286576E-05
585.0042,-5.290343E-05
585.1042,-5.290532E-05
585.2042,-5.284975E-05
585.3041,-5.282715E-05
585.4041,-5.281679E-05
585.5041,-5.282056E-05
585.6041,-5.279419E-05
585.704,-5.279513E-05
585.804,-5.276311E-05
585.904,-5.277347E-05
586.004,-5.278383E-05
586.1039,-5.274805E-05
586.2039,-5.273015E-05
586.3039,-5.275276E-05
586.4039,-5.271038E-05
586.5038,-5.269531E-05
586.6038,-5.2668E-05
586.7038,-5.267742E-05
586.8038,-5.265576E-05
586.9037,-5.265576E-05
587.0037,-5.263881E-05
587.1037,-5.261338E-05
587.2037,-5.259831E-05
587.3036,-5.262185E-05
587.4036,-5.258513E-05
587.5036,-5.258607E-05
587.6036,-5.255028E-05
587.7036,-5.253804E-05
587.8035,-5.254652E-05
587.9035,-5.254275E-05
588.0035,-5.251167E-05
588.1035,-5.249661E-05
588.2034,-5.249566E-05
588.3034,-5.247777E-05
588.4034,-5.245705E-05
588.5034,-5.246458E-05
588.6033,-5.242127E-05
588.7033,-5.240055E-05
588.8033,-5.240808E-05
588.9033,-5.239396E-05
589.0032,-5.240055E-05
589.1032,-5.238266E-05
589.2032,-5.235534E-05
589.3032,-5.231956E-05
589.4031,-5.235252E-05
589.5031,-5.233086E-05
589.6031,-5.231014E-05
589.7031,-5.231767E-05
589.803,-5.227624E-05
589.903,-5.228754E-05
590.003,-5.228189E-05
590.103,-5.226682E-05
590.2029,-5.225081E-05
590.3029,-5.224611E-05
590.4029,-5.224046E-05
590.5029,-5.22235E-05
590.6028,-5.220278E-05
590.7028,-5.218677E-05
590.8028,-5.219431E-05
590.9028,-5.220373E-05
591.0027,-5.216041E-05
591.1027,-5.215099E-05
591.2027,-5.2167E-05
591.3027,-5.214628E-05
591.4026,-5.212556E-05
591.5026,-5.213404E-05
591.6026,-5.211426E-05
591.7026,-5.209543E-05
591.8026,-5.209731E-05
591.9025,-5.20587E-05
592.0025,-5.207094E-05
592.1025,-5.209637E-05
592.2025,-5.205211E-05
592.3024,-5.202292E-05
592.4024,-5.201726E-05
592.5024,-5.203327E-05
592.6024,-5.199466E-05
592.7023,-5.198242E-05
592.8023,-5.195134E-05
592.9023,-5.196547E-05
593.0023,-5.196453E-05
593.1022,-5.195228E-05
593.2022,-5.192686E-05
593.3022,-5.19212E-05
593.4022,-5.190331E-05
593.5021,-5.189484E-05
593.6021,-5.189295E-05
593.7021,-5.187694E-05
593.8021,-5.182986E-05
593.902,-5.182704E-05
594.002,-5.184398E-05
594.102,-5.182044E-05
594.202,-5.182798E-05
594.3019,-5.181103E-05
594.4019,-5.177053E-05
594.5019,-5.1763E-05
594.6019,-5.178936E-05
594.7018,-5.176394E-05
594.8018,-5.174134E-05
594.9018,-5.171967E-05
595.0018,-5.171779E-05
595.1017,-5.172909E-05
595.2017,-5.172627E-05
595.3017,-5.168578E-05
595.4017,-5.168012E-05
595.5016,-5.168578E-05
595.6016,-5.167542E-05
595.7016,-5.168201E-05
595.8016,-5.167259E-05
595.9016,-5.16481E-05
596.0015,-5.164151E-05
596.1015,-5.163774E-05
596.2015,-5.160008E-05
596.3015,-5.160667E-05
596.4014,-5.162268E-05
596.5014,-5.159914E-05
596.6014,-5.157371E-05
596.7014,-5.15916E-05
596.8013,-5.1569E-05
596.9013,-5.156711E-05
597.0013,-5.156052E-05
597.1013,-5.15125E-05
597.2012,-5.15012E-05
597.3012,-5.153133E-05
597.4012,-5.152191E-05
597.5012,-5.15012E-05
597.6011,-5.146729E-05
597.7011,-5.148518E-05
597.8011,-5.145599E-05
597.9011,-5.146259E-05
598.001,-5.144658E-05
598.101,-5.140231E-05
598.201,-5.141173E-05
598.301,-5.141927E-05
598.4009,-5.140608E-05
598.5009,-5.141267E-05
598.6009,-5.138442E-05
598.7009,-5.135993E-05
598.8008,-5.135334E-05
598.9008,-5.135334E-05
599.0008,-5.133074E-05
599.1008,-5.134298E-05
599.2007,-5.13458E-05
599.3007,-5.128083E-05
599.4007,-5.128648E-05
599.5007,-5.131191E-05
599.6006,-5.127329E-05
599.7006,-5.125446E-05
599.8006,-5.125446E-05
599.9006,-5.12328E-05
600.0005,-5.121867E-05
