EXPID. 0661
[电化学]: i-t : @ -1(V) X 60(sec)
起始电位 (V),-1
静置时间 (秒),0
运行时间 (秒),60
记录间隔,0.1
电解液 信息:
Ni(NO3)2,0.05
Fe(NO3)3,0.05
0.1,-0.1005814
0.2,-0.1005814
0.3,-0.1005814
0.4,-0.1005814
0.5,-0.1005814
0.6,-0.1003106
0.7,-0.08923745
0.8000001,-0.07691512
0.9000001,-0.06874792
1,-0.06365382
1.1,-0.06016027
1.2,-0.0574529
1.3,-0.05535237
1.4,-0.05359041
1.5,-0.0519936
1.6,-0.05060421
1.7,-0.04936999
1.8,-0.04814652
1.9,-0.04700271
2,-0.04593546
2.1,-0.04488115
2.2,-0.04386577
2.3,-0.04289755
2.4,-0.0419598
2.5,-0.04104197
2.6,-0.04018869
2.7,-0.039368
2.799999,-0.03860695
2.899999,-0.03791152
2.999999,-0.03726178
3.099999,-0.03666172
3.199999,-0.03612115
3.299999,-0.03560983
3.399999,-0.03514165
3.499999,-0.03472016
3.599999,-0.03431379
3.699999,-0.03394626
3.799999,-0.03362006
3.899998,-0.03330083
3.999998,-0.03302074
4.099998,-0.03277181
4.199998,-0.03253175
4.299998,-0.03233939
4.399998,-0.03216116
4.499998,-0.0320037
4.599998,-0.03186569
4.699998,-0.03175641
4.799998,-0.03164896
4.899998,-0.03155649
4.999998,-0.03149464
5.099998,-0.0314265
5.199997,-0.03136515
5.299997,-0.03133504
5.399997,-0.03129955
5.499997,-0.03127096
5.599997,-0.03125411
5.699997,-0.03123862
5.799997,-0.03123838
5.899997,-0.03124259
5.999997,-0.03124159
6.099997,-0.03124648
6.199996,-0.03126502
6.299996,-0.03127953
6.399996,-0.03129401
6.499996,-0.03131921
6.599996,-0.03133832
6.699996,-0.03136729
6.799996,-0.03140115
6.899996,-0.03143195
6.999996,-0.03146273
7.099996,-0.03150421
7.199996,-0.0315418
7.299995,-0.03157304
7.399995,-0.03162818
7.499995,-0.03166529
7.599995,-0.0317024
7.699995,-0.03175922
7.799995,-0.03179967
7.899995,-0.03184491
7.999995,-0.03189906
8.099995,-0.03194204
8.199995,-0.0319859
8.299995,-0.03202743
8.399996,-0.03207098
8.499996,-0.0321082
8.599997,-0.03214788
8.699997,-0.03218748
8.799997,-0.03222546
8.899998,-0.03226431
8.999998,-0.03230437
9.099998,-0.03234253
9.199999,-0.03237727
9.299999,-0.03241949
9.4,-0.03245443
9.5,-0.03248781
9.6,-0.03253256
9.700001,-0.03256369
9.800001,-0.03260076
9.900002,-0.03264318
10,-0.03267271
10.1,-0.03270755
10.2,-0.03275092
10.3,-0.03277737
10.4,-0.03281179
10.5,-0.03285434
10.6,-0.03288174
10.7,-0.03291268
10.8,-0.03295691
10.90001,-0.03298045
11.00001,-0.03301771
11.10001,-0.03305414
11.20001,-0.03307915
11.30001,-0.03311535
11.40001,-0.03315312
11.50001,-0.03316868
11.60001,-0.03321794
11.70001,-0.0332527
11.80001,-0.03327024
11.90001,-0.03330896
12.00001,-0.03334292
12.10001,-0.03336482
12.20001,-0.03339939
12.30001,-0.03343531
12.40001,-0.03345919
12.50001,-0.03348839
12.60001,-0.03352499
12.70001,-0.03354453
12.80001,-0.03357741
12.90001,-0.03360806
13.00001,-0.03362612
13.10001,-0.03365829
13.20001,-0.03368658
13.30001,-0.03370795
13.40001,-0.0337345
13.50002,-0.03375934
13.60002,-0.03378504
13.70002,-0.03380997
13.80002,-0.03382864
13.90002,-0.03385206
14.00002,-0.03388201
14.10002,-0.03390347
14.20002,-0.03392777
14.30002,-0.03394675
14.40002,-0.03397455
14.50002,-0.03399632
14.60002,-0.0340149
14.70002,-0.03404237
14.80002,-0.03405063
14.90002,-0.03407713
15.00002,-0.03409557
15.10002,-0.03411045
15.20002,-0.03413459
15.30002,-0.03415295
15.40002,-0.03416838
15.50002,-0.03418671
15.60002,-0.03420962
15.70002,-0.03422543
15.80002,-0.03424297
15.90002,-0.03425803
16.00002,-0.03427544
16.10003,-0.03429366
16.20003,-0.03430337
16.30003,-0.03432769
16.40003,-0.03433762
16.50003,-0.03434705
16.60003,-0.03438041
16.70003,-0.03438298
16.80003,-0.0343973
16.90003,-0.03442178
17.00003,-0.03442471
17.10003,-0.03443892
17.20003,-0.03445933
17.30003,-0.03446182
17.40003,-0.03447741
17.50003,-0.03449568
17.60003,-0.03449984
17.70003,-0.03451104
17.80003,-0.03452956
17.90003,-0.03452908
18.00003,-0.03454504
18.10003,-0.03456347
18.20003,-0.03456625
18.30003,-0.03457844
18.40003,-0.03460041
18.50003,-0.03459646
18.60003,-0.03461565
18.70004,-0.0346348
18.80004,-0.03463126
18.90004,-0.03465547
19.00004,-0.03466943
19.10004,-0.03466756
19.20004,-0.03468478
19.30004,-0.0347007
19.40004,-0.03470829
19.50004,-0.03471898
19.60004,-0.0347275
19.70004,-0.03473597
19.80004,-0.03474386
19.90004,-0.03474942
20.00004,-0.03475422
20.10004,-0.03476388
20.20004,-0.03476807
20.30004,-0.034772
20.40004,-0.03478418
20.50004,-0.03478234
20.60004,-0.03479306
20.70004,-0.03479698
20.80004,-0.0348016
20.90004,-0.03481291
21.00004,-0.03480864
21.10004,-0.03481951
21.20004,-0.03482848
21.30005,-0.03482711
21.40005,-0.03483814
21.50005,-0.03484374
21.60005,-0.03484167
21.70005,-0.03484675
21.80005,-0.03485719
21.90005,-0.03485902
22.00005,-0.0348632
22.10005,-0.03486697
22.20005,-0.03487626
22.30005,-0.03488609
22.40005,-0.03488686
22.50005,-0.03489524
22.60005,-0.03490438
22.70005,-0.0349044
22.80005,-0.03490911
22.90005,-0.03491649
23.00005,-0.03491955
23.10005,-0.03491982
23.20005,-0.03493065
23.30005,-0.03492897
23.40005,-0.03493064
23.50005,-0.03493911
23.60005,-0.03493979
23.70005,-0.03494193
23.80005,-0.03494661
23.90005,-0.0349483
24.00006,-0.03494787
24.10006,-0.0349567
24.20006,-0.03495761
24.30006,-0.03495922
24.40006,-0.03496801
24.50006,-0.03496207
24.60006,-0.03497665
24.70006,-0.03497744
24.80006,-0.03497599
24.90006,-0.03498571
25.00006,-0.03498374
25.10006,-0.03498319
25.20006,-0.03499121
25.30006,-0.03498941
25.40006,-0.03499283
25.50006,-0.03499958
25.60006,-0.03499894
25.70006,-0.03499559
25.80006,-0.03500822
25.90006,-0.03501235
26.00006,-0.03502129
26.10006,-0.03502869
26.20006,-0.03503264
26.30006,-0.03503912
26.40006,-0.03504708
26.50006,-0.03504432
26.60007,-0.03504883
26.70007,-0.03505946
26.80007,-0.03505046
26.90007,-0.0350549
27.00007,-0.03506725
27.10007,-0.03505892
27.20007,-0.03506389
27.30007,-0.0350728
27.40007,-0.03506637
27.50007,-0.03507609
27.60007,-0.03507698
27.70007,-0.03507823
27.80007,-0.03508158
27.90007,-0.03508631
28.00007,-0.03508346
28.10007,-0.03509175
28.20007,-0.03509784
28.30007,-0.03509369
28.40007,-0.0350956
28.50007,-0.03510309
28.60007,-0.03510089
28.70007,-0.03510252
28.80007,-0.0351102
28.90007,-0.03510711
29.00007,-0.035111
29.10007,-0.03511688
29.20008,-0.03511363
29.30008,-0.0351245
29.40008,-0.03512315
29.50008,-0.03512551
29.60008,-0.03513355
29.70008,-0.03513354
29.80008,-0.03513284
29.90008,-0.03513645
30.00008,-0.0351403
30.10008,-0.03513902
30.20008,-0.03514271
30.30008,-0.03514589
30.40008,-0.03515021
30.50008,-0.03514616
30.60008,-0.03515707
30.70008,-0.0351661
30.80008,-0.03516093
30.90008,-0.03516274
31.00008,-0.03517344
31.10008,-0.03516806
31.20008,-0.03516915
31.30008,-0.03517662
31.40008,-0.03517377
31.50008,-0.03517222
31.60008,-0.03518289
31.70008,-0.0351801
31.80009,-0.03517409
31.90009,-0.03519303
32.00008,-0.03518711
32.10008,-0.03518409
32.20008,-0.03519552
32.30008,-0.03519303
32.40008,-0.03519475
32.50008,-0.03520268
32.60007,-0.03520078
32.70007,-0.03520243
32.80007,-0.03521202
32.90007,-0.03520343
33.00007,-0.03520209
33.10007,-0.03521841
33.20007,-0.03521618
33.30006,-0.03522154
33.40006,-0.03522891
33.50006,-0.0352346
33.60006,-0.03523511
33.70006,-0.03523862
33.80006,-0.03523988
33.90005,-0.03524464
34.00005,-0.03524614
34.10005,-0.03524624
34.20005,-0.03525178
34.30005,-0.03525376
34.40005,-0.03525176
34.50005,-0.03525253
34.60004,-0.03525846
34.70004,-0.03526206
34.80004,-0.03526176
34.90004,-0.03526332
35.00004,-0.03526688
35.10004,-0.03527078
35.20004,-0.03526987
35.30003,-0.03527344
35.40003,-0.03527365
35.50003,-0.03527429
35.60003,-0.03527887
35.70003,-0.03527711
35.80003,-0.03527918
35.90002,-0.03527751
36.00002,-0.03528327
36.10002,-0.03528015
36.20002,-0.03528123
36.30002,-0.03528587
36.40002,-0.03528117
36.50002,-0.03528934
36.60001,-0.03529382
36.70001,-0.03529171
36.80001,-0.03529903
36.90001,-0.03529464
37.00001,-0.03530079
37.10001,-0.0353001
37.2,-0.03529816
37.3,-0.0353067
37.4,-0.03530221
37.5,-0.03530675
37.6,-0.03530492
37.7,-0.03531334
37.8,-0.03530896
37.89999,-0.03530835
37.99999,-0.03532447
38.09999,-0.03531276
38.19999,-0.0353136
38.29999,-0.03532474
38.39999,-0.03531409
38.49998,-0.03531659
38.59998,-0.03532425
38.69998,-0.03531416
38.79998,-0.03531807
38.89998,-0.03532546
38.99998,-0.03531467
39.09998,-0.03531888
39.19997,-0.03532735
39.29997,-0.03531725
39.39997,-0.03532341
39.49997,-0.03532801
39.59997,-0.03531967
39.69997,-0.03532358
39.79996,-0.03532992
39.89996,-0.03532205
39.99996,-0.03532521
40.09996,-0.03533308
40.19996,-0.03532061
40.29996,-0.03532546
40.39996,-0.03533411
40.49995,-0.03532422
40.59995,-0.03532561
40.69995,-0.03533282
40.79995,-0.03532307
40.89995,-0.03532965
40.99995,-0.03532757
41.09995,-0.03532516
41.19994,-0.03533072
41.29994,-0.03532659
41.39994,-0.035321
41.49994,-0.03533973
41.59994,-0.03533373
41.69994,-0.03532213
41.79993,-0.03534007
41.89993,-0.03533224
41.99993,-0.03532686
42.09993,-0.03533476
42.19993,-0.03532987
42.29993,-0.03533074
42.39993,-0.03532432
42.49992,-0.03532133
42.59992,-0.03533227
42.69992,-0.0353348
42.79992,-0.0353297
42.89992,-0.03533622
42.99992,-0.03533787
43.09991,-0.03533837
43.19991,-0.0353351
43.29991,-0.03533969
43.39991,-0.03533701
43.49991,-0.03533386
43.59991,-0.0353419
43.69991,-0.03533626
43.7999,-0.03533537
43.8999,-0.03533579
43.9999,-0.03533438
44.0999,-0.03533816
44.1999,-0.03533292
44.2999,-0.0353374
44.39989,-0.03533797
44.49989,-0.03533847
44.59989,-0.03533222
44.69989,-0.03533915
44.79989,-0.03533521
44.89989,-0.03532775
44.99989,-0.03534589
45.09988,-0.03533472
45.19988,-0.03533103
45.29988,-0.03534193
45.39988,-0.03533079
45.49988,-0.03533334
45.59988,-0.03533756
45.69987,-0.03532742
45.79987,-0.03532898
45.89987,-0.0353319
45.99987,-0.03533071
46.09987,-0.03532767
46.19987,-0.03533436
46.29987,-0.03532505
46.39986,-0.0353296
46.49986,-0.03533359
46.59986,-0.03532408
46.69986,-0.03533287
46.79986,-0.03533313
46.89986,-0.03532445
46.99986,-0.03533259
47.09985,-0.03533496
47.19985,-0.03532406
47.29985,-0.0353303
47.39985,-0.03533575
47.49985,-0.03532125
47.59985,-0.03533193
47.69984,-0.03533568
47.79984,-0.03532086
47.89984,-0.03533052
47.99984,-0.03533202
48.09984,-0.03532123
48.19984,-0.03532871
48.29984,-0.03533269
48.39983,-0.03531871
48.49983,-0.03532394
48.59983,-0.03533567
48.69983,-0.03531631
48.79983,-0.0353282
48.89983,-0.03532795
48.99982,-0.03531795
49.09982,-0.03532316
49.19982,-0.0353258
49.29982,-0.03531892
49.39982,-0.0353282
49.49982,-0.03532826
49.59982,-0.0353229
49.69981,-0.03532999
49.79981,-0.03533392
49.89981,-0.03531738
49.99981,-0.03533271
50.09981,-0.03533413
50.19981,-0.03532212
50.2998,-0.03533052
50.3998,-0.03532704
50.4998,-0.03532271
50.5998,-0.03532812
50.6998,-0.0353296
50.7998,-0.03532783
50.8998,-0.03532869
50.99979,-0.03533144
51.09979,-0.03532869
51.19979,-0.03533088
51.29979,-0.03532917
51.39979,-0.03532839
51.49979,-0.03533034
51.59978,-0.03532209
51.69978,-0.03532875
51.79978,-0.03532884
51.89978,-0.03531929
51.99978,-0.03531868
52.09978,-0.03532789
52.19978,-0.03532965
52.29977,-0.0353283
52.39977,-0.03533809
52.49977,-0.03534091
52.59977,-0.03534516
52.69977,-0.03534657
52.79977,-0.03534504
52.89977,-0.03535558
52.99976,-0.03534214
53.09976,-0.03535038
53.19976,-0.03535156
53.29976,-0.03534136
53.39976,-0.03534512
53.49976,-0.03534722
53.59975,-0.03533909
53.69975,-0.03533939
53.79975,-0.03534259
53.89975,-0.03534023
53.99975,-0.03533797
54.09975,-0.03534073
54.19975,-0.03533832
54.29974,-0.03533955
54.39974,-0.03532825
54.49974,-0.03534338
54.59974,-0.03534336
54.69974,-0.03533074
54.79974,-0.03533918
54.89973,-0.03534447
54.99973,-0.03533221
55.09973,-0.03533297
55.19973,-0.03533783
55.29973,-0.03533122
55.39973,-0.03532104
55.49973,-0.0353352
55.59972,-0.03532267
55.69972,-0.03532377
55.79972,-0.03532669
55.89972,-0.03532666
55.99972,-0.03532226
56.09972,-0.03531291
56.19971,-0.0353215
56.29971,-0.03532584
56.39971,-0.03531251
56.49971,-0.03531675
56.59971,-0.03532688
56.69971,-0.03531537
56.79971,-0.0353122
56.8997,-0.03531793
56.9997,-0.03531739
57.0997,-0.03532065
57.1997,-0.03533126
57.2997,-0.03532744
57.3997,-0.03532613
57.49969,-0.03532911
57.59969,-0.03532841
57.69969,-0.0353253
57.79969,-0.03532064
57.89969,-0.03532366
57.99969,-0.03532965
58.09969,-0.03532535
58.19968,-0.0353241
58.29968,-0.03533181
58.39968,-0.03533139
58.49968,-0.03532169
58.59968,-0.03532715
58.69968,-0.03533231
58.79967,-0.03531772
58.89967,-0.03532512
58.99967,-0.03532646
59.09967,-0.03531603
59.19967,-0.03531985
59.29967,-0.03532322
59.39967,-0.03531684
59.49966,-0.03531897
59.59966,-0.03531819
59.69966,-0.03530904
59.79966,-0.0353142
59.89966,-0.03531346
59.99966,-0.03530394
