EXPID. 0611
[电化学]: i-t : @ 0(V) X 600(sec)
起始电位 (V),0
静置时间 (秒),0
运行时间 (秒),600
记录间隔,0.1
电解液 信息:
HNO3,0.4
0.1,-0.01005814
0.2,-0.01005814
0.3,-0.01005814
0.4,-0.01005814
0.5,-0.01005814
0.6,-0.01005814
0.7,-0.01005814
0.8000001,-0.01005814
0.9000001,-0.01005814
1,-0.01005814
1.1,-0.01005814
1.2,-0.01005814
1.3,-0.01005814
1.4,-0.01005814
1.5,-0.01005814
1.6,-0.01005814
1.7,-0.01005814
1.8,-0.01005814
1.9,-0.01005814
2,-0.01005814
2.1,-0.01005814
2.2,-0.01005814
2.3,-0.01005814
2.4,-0.01005814
2.5,-0.01005814
2.6,-0.01005814
2.7,-0.01005814
2.799999,-0.009948139
2.899999,-0.009635001
2.999999,-0.009368502
3.099999,-0.009113268
3.199999,-0.008888721
3.299999,-0.008687349
3.399999,-0.008488351
3.499999,-0.008311744
3.599999,-0.008148271
3.699999,-0.007987415
3.799999,-0.007843801
3.899998,-0.00770176
3.999998,-0.007566547
4.099998,-0.007435479
4.199998,-0.007314225
4.299998,-0.007178658
4.399998,-0.007065829
4.499998,-0.006942207
4.599998,-0.006817228
4.699998,-0.006700341
4.799998,-0.006576712
4.899998,-0.006459376
4.999998,-0.006343196
5.099998,-0.006227941
5.199997,-0.006114452
5.299997,-0.005998463
5.399997,-0.005887317
5.499997,-0.005775364
5.599997,-0.005665636
5.699997,-0.005566396
5.799997,-0.005475744
5.899997,-0.005391859
5.999997,-0.005317037
6.099997,-0.005247006
6.199996,-0.005179913
6.299996,-0.005118791
6.399996,-0.005060423
6.499996,-0.005004421
6.599996,-0.004951343
6.699996,-0.004901265
6.799996,-0.004851701
6.899996,-0.004805988
6.999996,-0.004761298
7.099996,-0.004718851
7.199996,-0.004677631
7.299995,-0.004637757
7.399995,-0.004600229
7.499995,-0.004562325
7.599995,-0.00452691
7.699995,-0.004492929
7.799995,-0.004458801
7.899995,-0.004426073
7.999995,-0.004394534
8.099995,-0.004363133
8.199995,-0.004333051
8.299995,-0.004304308
8.399996,-0.004275238
8.499996,-0.00424769
8.599997,-0.004220735
8.699997,-0.004194259
8.799997,-0.004169002
8.899998,-0.00414402
8.999998,-0.004119487
9.099998,-0.004095578
9.199999,-0.004072137
9.299999,-0.004049588
9.4,-0.004027535
9.5,-0.0040056
9.6,-0.003985064
9.700001,-0.00396411
9.800001,-0.003943725
9.900002,-0.00392435
10,-0.0039047
10.1,-0.003885909
10.2,-0.003867061
10.3,-0.003847841
10.4,-0.003829779
10.5,-0.003811791
10.6,-0.003793613
10.7,-0.003776414
10.8,-0.003759268
10.90001,-0.003742449
11.00001,-0.003726224
11.10001,-0.003710175
11.20001,-0.003693616
11.30001,-0.00367849
11.40001,-0.003663034
11.50001,-0.003647315
11.60001,-0.003632728
11.70001,-0.003617719
11.80001,-0.003603402
11.90001,-0.003589166
12.00001,-0.003575654
12.10001,-0.003561588
12.20001,-0.003547666
12.30001,-0.003534529
12.40001,-0.003521129
12.50001,-0.003507985
12.60001,-0.003495332
12.70001,-0.003482122
12.80001,-0.003469592
12.90001,-0.003457267
13.00001,-0.003444974
13.10001,-0.003433707
13.20001,-0.003422878
13.30001,-0.00341085
13.40001,-0.003399425
13.50002,-0.003387715
13.60002,-0.00337589
13.70002,-0.003364265
13.80002,-0.003352719
13.90002,-0.003341676
14.00002,-0.003330766
14.10002,-0.003319574
14.20002,-0.003309163
14.30002,-0.003298854
14.40002,-0.003288555
14.50002,-0.003278965
14.60002,-0.003269096
14.70002,-0.003259632
14.80002,-0.003249536
14.90002,-0.003239821
15.00002,-0.003229966
15.10002,-0.003220086
15.20002,-0.003210388
15.30002,-0.003200958
15.40002,-0.003191259
15.50002,-0.003181593
15.60002,-0.00317234
15.70002,-0.003162945
15.80002,-0.003153901
15.90002,-0.003144867
16.00002,-0.003136079
16.10003,-0.003127802
16.20003,-0.003119368
16.30003,-0.003110943
16.40003,-0.003102443
16.50003,-0.003094057
16.60003,-0.003086052
16.70003,-0.003077751
16.80003,-0.003069157
16.90003,-0.003060813
17.00003,-0.003052528
17.10003,-0.00304421
17.20003,-0.003036463
17.30003,-0.0030281
17.40003,-0.003020291
17.50003,-0.003012736
17.60003,-0.003004827
17.70003,-0.002997475
17.80003,-0.002990347
17.90003,-0.002982598
18.00003,-0.00297549
18.10003,-0.002968703
18.20003,-0.002961282
18.30003,-0.002953977
18.40003,-0.002946937
18.50003,-0.002939615
18.60003,-0.002932568
18.70004,-0.002925531
18.80004,-0.002918283
18.90004,-0.002911451
19.00004,-0.002904393
19.10004,-0.002897669
19.20004,-0.002891231
19.30004,-0.00288513
19.40004,-0.002878721
19.50004,-0.002871803
19.60004,-0.002865033
19.70004,-0.002858405
19.80004,-0.00285164
19.90004,-0.002844931
20.00004,-0.002838317
20.10004,-0.002831538
20.20004,-0.002825214
20.30004,-0.002818834
20.40004,-0.002812336
20.50004,-0.002806268
20.60004,-0.002800272
20.70004,-0.002794327
20.80004,-0.00278814
20.90004,-0.002781925
21.00004,-0.002775984
21.10004,-0.002770024
21.20004,-0.002764131
21.30005,-0.002758402
21.40005,-0.00275263
21.50005,-0.002746581
21.60005,-0.00274096
21.70005,-0.002735286
21.80005,-0.002729542
21.90005,-0.00272399
22.00005,-0.002718259
22.10005,-0.002712623
22.20005,-0.002707213
22.30005,-0.00270158
22.40005,-0.002696216
22.50005,-0.002690725
22.60005,-0.002685071
22.70005,-0.00267967
22.80005,-0.002674445
22.90005,-0.002669013
23.00005,-0.002663897
23.10005,-0.002658594
23.20005,-0.002653507
23.30005,-0.002648365
23.40005,-0.002643082
23.50005,-0.00263851
23.60005,-0.002633548
23.70005,-0.002628736
23.80005,-0.002623749
23.90005,-0.002618739
24.00006,-0.002613715
24.10006,-0.002608733
24.20006,-0.002603418
24.30006,-0.002598297
24.40006,-0.002593226
24.50006,-0.002588032
24.60006,-0.002583149
24.70006,-0.002578227
24.80006,-0.002573112
24.90006,-0.002568456
25.00006,-0.002563704
25.10006,-0.002558697
25.20006,-0.002554029
25.30006,-0.002549166
25.40006,-0.002544356
25.50006,-0.002539915
25.60006,-0.002535198
25.70006,-0.002530452
25.80006,-0.002525765
25.90006,-0.002521045
26.00006,-0.002516436
26.10006,-0.002511908
26.20006,-0.002507278
26.30006,-0.002502768
26.40006,-0.002498309
26.50006,-0.002493606
26.60007,-0.002489409
26.70007,-0.002484922
26.80007,-0.002480796
26.90007,-0.002476571
27.00007,-0.002471977
27.10007,-0.002467669
27.20007,-0.002463256
27.30007,-0.002458825
27.40007,-0.0024545
27.50007,-0.002450041
27.60007,-0.002445753
27.70007,-0.00244142
27.80007,-0.002437123
27.90007,-0.002432715
28.00007,-0.00242869
28.10007,-0.002424427
28.20007,-0.002420265
28.30007,-0.00241614
28.40007,-0.002411815
28.50007,-0.002407694
28.60007,-0.002403509
28.70007,-0.002399415
28.80007,-0.002395293
28.90007,-0.002391197
29.00007,-0.002387035
29.10007,-0.002383081
29.20008,-0.002378885
29.30008,-0.002374884
29.40008,-0.002370973
29.50008,-0.002366753
29.60008,-0.002362831
29.70008,-0.002358916
29.80008,-0.002354879
29.90008,-0.002350964
30.00008,-0.002346875
30.10008,-0.002342861
30.20008,-0.002339044
30.30008,-0.002335077
30.40008,-0.002331194
30.50008,-0.002327462
30.60008,-0.002323979
30.70008,-0.002320562
30.80008,-0.002316666
30.90008,-0.002313116
31.00008,-0.002309508
31.10008,-0.002305669
31.20008,-0.002301865
31.30008,-0.002298025
31.40008,-0.002294017
31.50008,-0.00229022
31.60008,-0.002286431
31.70008,-0.00228248
31.80009,-0.002278637
31.90009,-0.002274792
32.00008,-0.002270956
32.10008,-0.002267358
32.20008,-0.002263461
32.30008,-0.002259888
32.40008,-0.002256269
32.50008,-0.002252414
32.60007,-0.002248596
32.70007,-0.00224502
32.80007,-0.002241323
32.90007,-0.002237601
33.00007,-0.002233917
33.10007,-0.002230116
33.20007,-0.002226271
33.30006,-0.002222547
33.40006,-0.002218859
33.50006,-0.002215167
33.60006,-0.002211379
33.70006,-0.002207798
33.80006,-0.002204204
33.90005,-0.002200409
34.00005,-0.002197269
34.10005,-0.002194014
34.20005,-0.0021903
34.30005,-0.002186748
34.40005,-0.002183215
34.50005,-0.002179583
34.60004,-0.002176092
34.70004,-0.002172587
34.80004,-0.002169102
34.90004,-0.002165793
35.00004,-0.002162342
35.10004,-0.002158925
35.20004,-0.002155414
35.30003,-0.002152092
35.40003,-0.002148943
35.50003,-0.002145509
35.60003,-0.002142354
35.70003,-0.002139014
35.80003,-0.002135487
35.90002,-0.00213216
36.00002,-0.002128741
36.10002,-0.002125216
36.20002,-0.002121976
36.30002,-0.002118603
36.40002,-0.002115275
36.50002,-0.002112039
36.60001,-0.002108669
36.70001,-0.002105424
36.80001,-0.002102133
36.90001,-0.00209876
37.00001,-0.002095555
37.10001,-0.002092233
37.2,-0.002089025
37.3,-0.002085936
37.4,-0.002082673
37.5,-0.002079424
37.6,-0.002076383
37.7,-0.002073159
37.8,-0.002070135
37.89999,-0.002066941
37.99999,-0.002063899
38.09999,-0.002060746
38.19999,-0.002057594
38.29999,-0.002054419
38.39999,-0.002051345
38.49998,-0.002048157
38.59998,-0.002045091
38.69998,-0.002041972
38.79998,-0.002038796
38.89998,-0.002035674
38.99998,-0.002032739
39.09998,-0.002029641
39.19997,-0.002026679
39.29997,-0.002023597
39.39997,-0.002020477
39.49997,-0.002017632
39.59997,-0.002014453
39.69997,-0.002011546
39.79996,-0.002008658
39.89996,-0.00200566
39.99996,-0.002002717
40.09996,-0.001999703
40.19996,-0.00199671
40.29996,-0.001993735
40.39996,-0.001990662
40.49995,-0.001987669
40.59995,-0.001984729
40.69995,-0.001981593
40.79995,-0.00197854
40.89995,-0.001975622
40.99995,-0.001972521
41.09995,-0.001969521
41.19994,-0.001966672
41.29994,-0.00196353
41.39994,-0.00196076
41.49994,-0.001957837
41.59994,-0.001954962
41.69994,-0.001952098
41.79993,-0.001949199
41.89993,-0.001946302
41.99993,-0.001943475
42.09993,-0.001940461
42.19993,-0.001937694
42.29993,-0.001934862
42.39993,-0.001931972
42.49992,-0.001929258
42.59992,-0.001926358
42.69992,-0.001923693
42.79992,-0.001921026
42.89992,-0.001918084
42.99992,-0.001915202
43.09991,-0.001912438
43.19991,-0.001909538
43.29991,-0.001906872
43.39991,-0.001903939
43.49991,-0.001901167
43.59991,-0.001898465
43.69991,-0.001895622
43.7999,-0.001892841
43.8999,-0.001890101
43.9999,-0.001887415
44.0999,-0.00188458
44.1999,-0.001881729
44.2999,-0.001878891
44.39989,-0.001876082
44.49989,-0.001873359
44.59989,-0.001870547
44.69989,-0.001867839
44.79989,-0.001865175
44.89989,-0.00186225
44.99989,-0.001859716
45.09988,-0.00185702
45.19988,-0.001854519
45.29988,-0.001851911
45.39988,-0.001849127
45.49988,-0.001846415
45.59988,-0.001843752
45.69987,-0.001841132
45.79987,-0.001838424
45.89987,-0.001835698
45.99987,-0.001833072
46.09987,-0.001830449
46.19987,-0.001827821
46.29987,-0.001825006
46.39986,-0.001822499
46.49986,-0.001819801
46.59986,-0.001817254
46.69986,-0.001814653
46.79986,-0.001811944
46.89986,-0.001809367
46.99986,-0.001806738
47.09985,-0.001804192
47.19985,-0.001801667
47.29985,-0.001799022
47.39985,-0.001796553
47.49985,-0.001794029
47.59985,-0.001791449
47.69984,-0.001788977
47.79984,-0.001786302
47.89984,-0.001783744
47.99984,-0.001781294
48.09984,-0.001778682
48.19984,-0.00177606
48.29984,-0.001773584
48.39983,-0.001770949
48.49983,-0.001768436
48.59983,-0.001765994
48.69983,-0.001763531
48.79983,-0.001761129
48.89983,-0.001758627
48.99982,-0.001756084
49.09982,-0.001753662
49.19982,-0.00175105
49.29982,-0.001748582
49.39982,-0.0017462
49.49982,-0.001743691
49.59982,-0.001741265
49.69981,-0.001738836
49.79981,-0.001736197
49.89981,-0.001733889
49.99981,-0.001731468
50.09981,-0.001729065
50.19981,-0.001726695
50.2998,-0.001724288
50.3998,-0.001721812
50.4998,-0.00171936
50.5998,-0.00171691
50.6998,-0.001714616
50.7998,-0.00171217
50.8998,-0.001709644
50.99979,-0.001707299
51.09979,-0.001704923
51.19979,-0.001702385
51.29979,-0.001700053
51.39979,-0.001697678
51.49979,-0.001695316
51.59978,-0.001693009
51.69978,-0.001690542
51.79978,-0.001688148
51.89978,-0.001685836
51.99978,-0.001683547
52.09978,-0.001681187
52.19978,-0.001678821
52.29977,-0.001676524
52.39977,-0.001674213
52.49977,-0.001672043
52.59977,-0.001669569
52.69977,-0.001667343
52.79977,-0.001664905
52.89977,-0.001662663
52.99976,-0.001660353
53.09976,-0.001658014
53.19976,-0.001655681
53.29976,-0.001653403
53.39976,-0.001651031
53.49976,-0.001648847
53.59975,-0.001646581
53.69975,-0.001644349
53.79975,-0.001642016
53.89975,-0.00163988
53.99975,-0.001637509
54.09975,-0.001635431
54.19975,-0.001633091
54.29974,-0.001630881
54.39974,-0.001628702
54.49974,-0.00162638
54.59974,-0.001624267
54.69974,-0.001621887
54.79974,-0.001619672
54.89973,-0.001617505
54.99973,-0.001615319
55.09973,-0.001613068
55.19973,-0.001610819
55.29973,-0.001608601
55.39973,-0.001606372
55.49973,-0.001604046
55.59972,-0.001601783
55.69972,-0.001599655
55.79972,-0.001597327
55.89972,-0.001595106
55.99972,-0.001592938
56.09972,-0.001590719
56.19971,-0.00158858
56.29971,-0.001586396
56.39971,-0.001584138
56.49971,-0.001581893
56.59971,-0.001579719
56.69971,-0.00157743
56.79971,-0.001575296
56.8997,-0.001573102
56.9997,-0.001570938
57.0997,-0.001568823
57.1997,-0.001566664
57.2997,-0.001564571
57.3997,-0.001562419
57.49969,-0.001560367
57.59969,-0.001558242
57.69969,-0.001556158
57.79969,-0.001554019
57.89969,-0.001551876
57.99969,-0.001549811
58.09969,-0.001547661
58.19968,-0.001545595
58.29968,-0.0015435
58.39968,-0.001541379
58.49968,-0.001539399
58.59968,-0.001537406
58.69968,-0.001535256
58.79967,-0.00153327
58.89967,-0.001531211
58.99967,-0.001529187
59.09967,-0.001527303
59.19967,-0.001525192
59.29967,-0.001523094
59.39967,-0.00152116
59.49966,-0.001519039
59.59966,-0.001517063
59.69966,-0.001515064
59.79966,-0.001513042
59.89966,-0.001511039
59.99966,-0.001508925
60.09966,-0.001506987
60.19965,-0.001504922
60.29965,-0.001502806
60.39965,-0.001500831
60.49965,-0.001498865
60.59965,-0.001496677
60.69965,-0.00149472
60.79964,-0.001492686
60.89964,-0.001490706
60.99964,-0.001488894
61.09964,-0.001486832
61.19964,-0.001484785
61.29964,-0.001482825
61.39964,-0.001480882
61.49963,-0.001478818
61.59963,-0.001476971
61.69963,-0.001474958
61.79963,-0.00147295
61.89963,-0.001470988
61.99963,-0.001468956
62.09962,-0.001466848
62.19962,-0.001464938
62.29962,-0.001462961
62.39962,-0.001461023
62.49962,-0.001459054
62.59962,-0.001457091
62.69962,-0.001455151
62.79961,-0.001453162
62.89961,-0.00145123
62.99961,-0.001449321
63.09961,-0.001447354
63.19961,-0.001445404
63.29961,-0.001443447
63.3996,-0.001441585
63.4996,-0.001439633
63.5996,-0.001437877
63.6996,-0.001435936
63.7996,-0.001434083
63.8996,-0.001432276
63.9996,-0.001430314
64.09959,-0.001428525
64.19959,-0.001426563
64.29959,-0.00142468
64.39959,-0.001422876
64.49959,-0.001420909
64.59959,-0.001419129
64.69958,-0.001417216
64.79958,-0.001415352
64.89958,-0.001413491
64.99958,-0.001411591
65.09958,-0.001409735
65.19958,-0.001407839
65.29958,-0.001405954
65.39957,-0.001404134
65.49957,-0.001402289
65.59957,-0.001400377
65.69957,-0.001398614
65.79957,-0.00139674
65.89957,-0.001394931
65.99957,-0.001393144
66.09956,-0.001391253
66.19956,-0.001389345
66.29956,-0.001387622
66.39956,-0.001385785
66.49956,-0.001383956
66.59956,-0.001382348
66.69955,-0.001380476
66.79955,-0.001378676
66.89955,-0.001376903
66.99955,-0.001375103
67.09955,-0.001373308
67.19955,-0.001371578
67.29955,-0.00136984
67.39954,-0.001368022
67.49954,-0.001366177
67.59954,-0.001364463
67.69954,-0.001362743
67.79954,-0.001360878
67.89954,-0.001359113
67.99953,-0.001357376
68.09953,-0.001355558
68.19953,-0.001353869
68.29953,-0.001352112
68.39953,-0.001350404
68.49953,-0.001348694
68.59953,-0.001346926
68.69952,-0.001345113
68.79952,-0.001343381
68.89952,-0.001341601
68.99952,-0.001339896
69.09952,-0.001338163
69.19952,-0.001336408
69.29951,-0.001334631
69.39951,-0.001332838
69.49951,-0.001331097
69.59951,-0.00132939
69.69951,-0.001327623
69.79951,-0.001326
69.89951,-0.001324344
69.9995,-0.001322551
70.0995,-0.001320877
70.1995,-0.001319187
70.2995,-0.001317358
70.3995,-0.001315724
70.4995,-0.001313962
70.59949,-0.001312171
70.69949,-0.001310545
70.79949,-0.001308853
70.89949,-0.001307066
70.99949,-0.001305465
71.09949,-0.001303828
71.19949,-0.001302127
71.29948,-0.001300516
71.39948,-0.001298874
71.49948,-0.00129719
71.59948,-0.001295607
71.69948,-0.00129396
71.79948,-0.001292168
71.89948,-0.001290623
71.99947,-0.001288955
72.09947,-0.001287153
72.19947,-0.001285595
72.29947,-0.001283928
72.39947,-0.001282355
72.49947,-0.001280717
72.59946,-0.001279128
72.69946,-0.001277556
72.79946,-0.001275938
72.89946,-0.001274317
72.99946,-0.00127264
73.09946,-0.001270999
73.19946,-0.001269435
73.29945,-0.001267687
73.39945,-0.001266067
73.49945,-0.001264391
73.59945,-0.001262678
73.69945,-0.00126101
73.79945,-0.001259449
73.89944,-0.001257724
73.99944,-0.001256097
74.09944,-0.001254507
74.19944,-0.001252831
74.29944,-0.001251218
74.39944,-0.001249625
74.49944,-0.001248038
74.59943,-0.001246534
74.69943,-0.001245003
74.79943,-0.001243426
74.89943,-0.001241825
74.99943,-0.001240419
75.09943,-0.001238976
75.19942,-0.001237501
75.29942,-0.001235789
75.39942,-0.001234367
75.49942,-0.00123277
75.59942,-0.001231126
75.69942,-0.001229564
75.79942,-0.001228007
75.89941,-0.00122647
75.99941,-0.001224956
76.09941,-0.001223347
76.19941,-0.001221768
76.29941,-0.001220225
76.39941,-0.001218666
76.4994,-0.001217088
76.5994,-0.001215565
76.6994,-0.00121398
76.7994,-0.001212546
76.8994,-0.001210962
76.9994,-0.001209381
77.0994,-0.001208
77.19939,-0.001206459
77.29939,-0.001205026
77.39939,-0.001203572
77.49939,-0.001202071
77.59939,-0.001200626
77.69939,-0.001199138
77.79939,-0.001197595
77.89938,-0.001196091
77.99938,-0.001194545
78.09938,-0.001192953
78.19938,-0.001191475
78.29938,-0.001189905
78.39938,-0.001188347
78.49937,-0.001186809
78.59937,-0.001185283
78.69937,-0.00118384
78.79937,-0.001182413
78.89937,-0.001180864
78.99937,-0.001179372
79.09937,-0.00117789
79.19936,-0.001176448
79.29936,-0.001175034
79.39936,-0.001173581
79.49936,-0.001172108
79.59936,-0.001170721
79.69936,-0.001169221
79.79935,-0.00116774
79.89935,-0.001166409
79.99935,-0.001164928
80.09935,-0.001163552
80.19935,-0.001162128
80.29935,-0.001160659
80.39935,-0.001159131
80.49934,-0.001157761
80.59934,-0.001156287
80.69934,-0.001154794
80.79934,-0.001153337
80.89934,-0.001151942
80.99934,-0.001150547
81.09933,-0.001149097
81.19933,-0.001147626
81.29933,-0.001146221
81.39933,-0.001144866
81.49933,-0.001143505
81.59933,-0.001142052
81.69933,-0.001140662
81.79932,-0.001139235
81.89932,-0.00113782
81.99932,-0.001136482
82.09932,-0.001135094
82.19932,-0.001133602
82.29932,-0.001132239
82.39931,-0.00113088
82.49931,-0.001129408
82.59931,-0.001128027
82.69931,-0.001126661
82.79931,-0.001125201
82.89931,-0.001123902
82.99931,-0.001122541
83.0993,-0.001121099
83.1993,-0.001119726
83.2993,-0.001118375
83.3993,-0.001116909
83.4993,-0.001115602
83.5993,-0.001114251
83.6993,-0.001112857
83.79929,-0.001111547
83.89929,-0.001110168
83.99929,-0.00110878
84.09929,-0.001107469
84.19929,-0.001106075
84.29929,-0.0011048
84.39928,-0.001103427
84.49928,-0.001102131
84.59928,-0.001100772
84.69928,-0.001099423
84.79928,-0.00109809
84.89928,-0.00109683
84.99928,-0.001095396
85.09927,-0.001094123
85.19927,-0.001092758
85.29927,-0.001091349
85.39927,-0.001090056
85.49927,-0.001088834
85.59927,-0.00108739
85.69926,-0.001086122
85.79926,-0.001084841
85.89926,-0.001083438
85.99926,-0.001082093
86.09926,-0.001080838
86.19926,-0.001079495
86.29926,-0.001078186
86.39925,-0.001076874
86.49925,-0.001075506
86.59925,-0.001074239
86.69925,-0.001072963
86.79925,-0.001071597
86.89925,-0.001070365
86.99924,-0.00106914
87.09924,-0.001067871
87.19924,-0.001066596
87.29924,-0.001065245
87.39924,-0.001063962
87.49924,-0.001062665
87.59924,-0.001061378
87.69923,-0.001060096
87.79923,-0.001058798
87.89923,-0.00105753
87.99923,-0.001056327
88.09923,-0.001055031
88.19923,-0.001053759
88.29922,-0.001052523
88.39922,-0.001051242
88.49922,-0.00105002
88.59922,-0.001048776
88.69922,-0.001047464
88.79922,-0.001046298
88.89922,-0.001045081
88.99921,-0.001043764
89.09921,-0.001042722
89.19921,-0.001041531
89.29921,-0.001040227
89.39921,-0.001038964
89.49921,-0.001037765
89.59921,-0.001036481
89.6992,-0.001035249
89.7992,-0.001033948
89.8992,-0.001032681
89.9992,-0.001031434
90.0992,-0.001030116
90.1992,-0.001028887
90.29919,-0.001027638
90.39919,-0.001026436
90.49919,-0.001025186
90.59919,-0.001023925
90.69919,-0.001022738
90.79919,-0.001021498
90.89919,-0.001020184
90.99918,-0.001019055
91.09918,-0.001017895
91.19918,-0.001016635
91.29918,-0.00101543
91.39918,-0.001014246
91.49918,-0.001012972
91.59917,-0.001011784
91.69917,-0.001010635
91.79917,-0.001009455
91.89917,-0.001008255
91.99917,-0.001007012
92.09917,-0.001005791
92.19917,-0.001004645
92.29916,-0.001003411
92.39916,-0.001002271
92.49916,-0.001001055
92.59916,-0.0009999679
92.69916,-0.000998897
92.79916,-0.0009976219
92.89915,-0.0009964824
92.99915,-0.0009953289
93.09915,-0.0009941169
93.19915,-0.000992903
93.29915,-0.0009917042
93.39915,-0.0009905288
93.49915,-0.0009893404
93.59914,-0.0009881397
93.69914,-0.0009869456
93.79914,-0.00098584
93.89914,-0.0009846073
93.99914,-0.0009834414
94.09914,-0.0009823989
94.19913,-0.0009812529
94.29913,-0.0009801586
94.39913,-0.0009789625
94.49913,-0.0009777581
94.59913,-0.0009766327
94.69913,-0.0009754404
94.79913,-0.0009742717
94.89912,-0.0009730974
94.99912,-0.0009719371
95.09912,-0.0009708128
95.19912,-0.0009697561
95.29912,-0.0009684923
95.39912,-0.0009674348
95.49911,-0.0009663273
95.59911,-0.0009651614
95.69911,-0.0009640247
95.79911,-0.0009628881
95.89911,-0.0009617975
95.99911,-0.0009606421
96.09911,-0.0009595082
96.1991,-0.0009583528
96.2991,-0.0009572584
96.3991,-0.0009561275
96.4991,-0.0009549719
96.5991,-0.0009538456
96.6991,-0.0009527438
96.7991,-0.0009516033
96.89909,-0.0009504525
96.99909,-0.000949346
97.09909,-0.0009483158
97.19909,-0.000947164
97.29909,-0.0009460368
97.39909,-0.0009449585
97.49908,-0.0009438491
97.59908,-0.0009428593
97.69908,-0.000941702
97.79908,-0.0009406604
97.89908,-0.0009395143
97.99908,-0.0009384059
98.09908,-0.0009372946
98.19907,-0.0009361843
98.29907,-0.0009350534
98.39907,-0.0009339816
98.49907,-0.0009329156
98.59907,-0.000931876
98.69907,-0.0009307053
98.79906,-0.0009296826
98.89906,-0.0009286675
98.99906,-0.0009275873
99.09906,-0.000926492
99.19906,-0.0009253931
99.29906,-0.0009243326
99.39906,-0.0009232215
99.49905,-0.0009221252
99.59905,-0.0009210413
99.69905,-0.0009199404
99.79905,-0.0009188979
99.89905,-0.0009178959
99.99905,-0.0009167733
100.099,-0.0009156499
100.199,-0.0009146489
100.299,-0.0009135319
100.399,-0.0009125252
100.499,-0.0009114771
100.599,-0.0009104468
100.699,-0.0009094222
100.799,-0.000908359
100.899,-0.0009072958
100.999,-0.0009062863
101.099,-0.0009052579
101.199,-0.000904239
101.299,-0.0009031597
101.399,-0.0009022359
101.499,-0.0009012621
101.599,-0.0009001659
101.699,-0.000899164
101.799,-0.0008982081
101.899,-0.0008971195
101.999,-0.0008960789
102.099,-0.000895025
102.199,-0.0008939477
102.299,-0.000892956
102.399,-0.0008919691
102.499,-0.0008908956
102.599,-0.0008898483
102.699,-0.0008888821
102.799,-0.0008877605
102.899,-0.0008867859
102.999,-0.0008857716
103.099,-0.000884699
103.199,-0.0008837234
103.299,-0.0008827241
103.399,-0.0008816892
103.499,-0.0008806919
103.599,-0.0008796749
103.699,-0.0008786248
103.799,-0.0008776425
103.899,-0.000876585
103.999,-0.0008755981
104.099,-0.0008746074
104.199,-0.0008735376
104.299,-0.0008725186
104.399,-0.0008715222
104.499,-0.0008705381
104.599,-0.0008695493
104.699,-0.0008685426
104.799,-0.0008675727
104.899,-0.0008665546
104.999,-0.000865579
105.099,-0.0008646025
105.199,-0.0008636861
105.299,-0.0008626389
105.399,-0.000861716
105.499,-0.0008608402
105.599,-0.0008597779
105.699,-0.0008588409
105.799,-0.0008578973
105.899,-0.0008568642
105.999,-0.0008559573
106.099,-0.0008550014
106.199,-0.0008540673
106.299,-0.0008530681
106.3989,-0.000852133
106.4989,-0.0008511884
106.5989,-0.0008501421
106.6989,-0.0008492107
106.7989,-0.0008483086
106.8989,-0.0008472426
106.9989,-0.0008462687
107.0989,-0.000845329
107.1989,-0.0008443213
107.2989,-0.000843372
107.3989,-0.0008424454
107.4989,-0.0008413878
107.5989,-0.0008405016
107.6989,-0.0008395317
107.7989,-0.0008385438
107.8989,-0.0008376586
107.9989,-0.0008367234
108.0989,-0.0008357271
108.1989,-0.0008347844
108.2989,-0.0008338407
108.3989,-0.0008328378
108.4989,-0.0008319102
108.5989,-0.0008309948
108.6989,-0.0008300475
108.7989,-0.0008291105
108.8989,-0.0008281716
108.9989,-0.000827259
109.0989,-0.0008263154
109.1989,-0.0008253887
109.2989,-0.0008244884
109.3989,-0.0008235759
109.4989,-0.0008226652
109.5989,-0.0008217489
109.6989,-0.0008208147
109.7989,-0.000819938
109.8989,-0.0008189764
109.9989,-0.0008180827
110.0989,-0.0008171768
110.1989,-0.000816235
110.2989,-0.0008153433
110.3989,-0.0008144788
110.4989,-0.0008136049
110.5989,-0.0008126904
110.6989,-0.0008117629
110.7989,-0.0008108823
110.8989,-0.0008099867
110.9989,-0.0008090327
111.0989,-0.000808155
111.1989,-0.0008072435
111.2989,-0.0008063083
111.3989,-0.0008054269
111.4989,-0.0008045821
111.5989,-0.0008036244
111.6989,-0.0008027221
111.7989,-0.0008018501
111.8989,-0.0008008707
111.9989,-0.0008000251
112.0989,-0.0007992029
112.1989,-0.0007982546
112.2989,-0.000797342
112.3989,-0.000796502
112.4989,-0.0007955613
112.5989,-0.0007946789
112.6989,-0.000793804
112.7989,-0.0007928915
112.8988,-0.0007920533
112.9988,-0.0007911427
113.0988,-0.0007902659
113.1988,-0.0007893892
113.2988,-0.0007885105
113.3988,-0.0007876357
113.4988,-0.0007868041
113.5988,-0.0007859509
113.6988,-0.0007850647
113.7988,-0.0007842332
113.8988,-0.0007834045
113.9988,-0.0007825616
114.0988,-0.0007816256
114.1988,-0.00078081
114.2988,-0.0007799407
114.3988,-0.000779016
114.4988,-0.0007781609
114.5988,-0.0007773067
114.6988,-0.0007764347
114.7988,-0.0007755957
114.8988,-0.0007748074
114.9988,-0.000773909
115.0988,-0.0007730435
115.1988,-0.0007722242
115.2988,-0.0007713343
115.3988,-0.0007704867
115.4988,-0.0007697013
115.5988,-0.0007687832
115.6988,-0.0007679224
115.7988,-0.0007671172
115.8988,-0.0007662809
115.9988,-0.0007653685
116.0988,-0.0007645557
116.1988,-0.0007637496
116.2988,-0.0007629058
116.3988,-0.0007620959
116.4988,-0.0007612756
116.5988,-0.0007604196
116.6988,-0.0007596003
116.7988,-0.0007587283
116.8988,-0.0007579128
116.9988,-0.0007570699
117.0988,-0.0007562619
117.1988,-0.0007555056
117.2988,-0.0007547918
117.3988,-0.0007539282
117.4988,-0.0007530844
117.5988,-0.0007522962
117.6988,-0.0007514618
117.7988,-0.0007506256
117.8988,-0.0007498148
117.9988,-0.000748954
118.0988,-0.0007481056
118.1988,-0.000747275
118.2988,-0.0007464584
118.3988,-0.000745674
118.4988,-0.0007448019
118.5988,-0.0007439676
118.6988,-0.0007432132
118.7988,-0.000742409
118.8988,-0.0007415473
118.9988,-0.0007407572
119.0988,-0.0007399737
119.1988,-0.0007391365
119.2988,-0.0007383059
119.3988,-0.0007375092
119.4987,-0.0007367416
119.5987,-0.0007359732
119.6987,-0.000735136
119.7987,-0.0007344222
119.8987,-0.0007336141
119.9987,-0.0007328354
120.0987,-0.0007320255
120.1987,-0.0007311751
120.2987,-0.0007303925
120.3987,-0.0007295949
120.4987,-0.0007287746
120.5987,-0.0007279826
120.6987,-0.0007271737
120.7987,-0.0007263657
120.8987,-0.0007255981
120.9987,-0.0007248052
121.0987,-0.0007240076
121.1987,-0.000723256
121.2987,-0.0007223963
121.3987,-0.0007216457
121.4987,-0.0007208829
121.5987,-0.000720089
121.6987,-0.0007192942
121.7987,-0.0007185144
121.8987,-0.0007177168
121.9987,-0.0007169041
122.0987,-0.0007161469
122.1987,-0.0007153756
122.2987,-0.0007145827
122.3987,-0.0007138501
122.4987,-0.0007130524
122.5987,-0.000712365
122.6987,-0.0007115485
122.7987,-0.0007107838
122.8987,-0.0007100445
122.9987,-0.0007092488
123.0987,-0.0007084802
123.1987,-0.0007077891
123.2987,-0.0007070159
123.3987,-0.0007062362
123.4987,-0.0007054649
123.5987,-0.0007047294
123.6987,-0.000703991
123.7987,-0.0007032424
123.8987,-0.0007025248
123.9987,-0.0007017488
124.0987,-0.0007009116
124.1987,-0.000700194
124.2987,-0.0006994265
124.3987,-0.0006986674
124.4987,-0.0006979696
124.5987,-0.0006972191
124.6987,-0.0006964667
124.7987,-0.0006957293
124.8987,-0.0006949684
124.9987,-0.0006942206
125.0987,-0.0006935237
125.1987,-0.0006927732
125.2987,-0.0006919727
125.3987,-0.0006912513
125.4987,-0.0006905159
125.5987,-0.0006897973
125.6987,-0.0006890863
125.7987,-0.0006883942
125.8987,-0.0006876784
125.9986,-0.0006869166
126.0986,-0.0006861754
126.1986,-0.0006854088
126.2986,-0.0006846582
126.3986,-0.0006839661
126.4986,-0.0006832391
126.5986,-0.0006824659
126.6986,-0.0006817671
126.7986,-0.0006810693
126.8986,-0.0006803093
126.9986,-0.0006796134
127.0986,-0.0006789947
127.1986,-0.0006782885
127.2986,-0.000677486
127.3986,-0.0006767788
127.4986,-0.0006760499
127.5986,-0.0006753558
127.6986,-0.0006746241
127.7986,-0.0006739254
127.8986,-0.0006732134
127.9986,-0.0006724459
128.0986,-0.0006717434
128.1986,-0.0006711021
128.2986,-0.0006703685
128.3986,-0.0006696527
128.4986,-0.0006689737
128.5986,-0.000668243
128.6987,-0.0006675178
128.7987,-0.0006668248
128.8987,-0.0006661241
128.9987,-0.0006653895
129.0987,-0.0006646597
129.1987,-0.0006639628
129.2987,-0.0006632509
129.3987,-0.0006624909
129.4987,-0.0006618015
129.5987,-0.000661065
129.6987,-0.0006603239
129.7987,-0.0006596374
129.8987,-0.0006589132
129.9987,-0.0006582201
130.0987,-0.0006575251
130.1987,-0.0006568283
130.2988,-0.0006561012
130.3988,-0.0006554015
130.4988,-0.0006547065
130.5988,-0.0006540153
130.6988,-0.0006533269
130.7988,-0.000652647
130.8988,-0.0006519915
130.9988,-0.0006512579
131.0988,-0.0006506015
131.1988,-0.000649898
131.2988,-0.0006491889
131.3988,-0.0006485335
131.4988,-0.0006478555
131.5988,-0.0006471633
131.6988,-0.0006464644
131.7988,-0.0006458297
131.8988,-0.0006450745
131.9989,-0.0006444397
132.0989,-0.000643757
132.1989,-0.00064303
132.2989,-0.0006423877
132.3989,-0.0006417097
132.4989,-0.0006410138
132.5989,-0.0006403422
132.6989,-0.0006396953
132.7989,-0.000639006
132.8989,-0.000638262
132.9989,-0.0006375736
133.0989,-0.0006369003
133.1989,-0.0006362655
133.2989,-0.0006356365
133.3989,-0.0006349537
133.4989,-0.000634285
133.599,-0.0006336202
133.699,-0.0006329337
133.799,-0.0006322707
133.899,-0.0006316114
133.999,-0.0006309249
134.099,-0.0006302837
134.199,-0.0006295933
134.299,-0.0006289907
134.399,-0.0006283144
134.499,-0.000627643
134.599,-0.000626997
134.699,-0.0006263321
134.799,-0.0006256324
134.899,-0.0006249968
134.999,-0.0006243978
135.099,-0.0006237208
135.1991,-0.00062307
135.2991,-0.0006224597
135.3991,-0.0006217883
135.4991,-0.0006211498
135.5991,-0.0006204708
135.6991,-0.0006198219
135.7991,-0.0006191882
135.8991,-0.0006186024
135.9991,-0.0006179432
136.0991,-0.0006173169
136.1991,-0.0006166549
136.2991,-0.0006160164
136.3991,-0.0006153929
136.4991,-0.000614714
136.5991,-0.0006140594
136.6991,-0.000613436
136.7991,-0.0006127994
136.8992,-0.0006121365
136.9992,-0.0006114509
137.0992,-0.0006108661
137.1992,-0.0006102257
137.2992,-0.0006095382
137.3992,-0.000608961
137.4992,-0.0006083187
137.5992,-0.0006076613
137.6992,-0.000607038
137.7992,-0.0006064061
137.8992,-0.0006057732
137.9992,-0.0006051762
138.0992,-0.0006045452
138.1992,-0.0006038549
138.2992,-0.0006032795
138.3992,-0.0006026598
138.4993,-0.0006020156
138.5993,-0.0006013857
138.6993,-0.0006008112
138.7993,-0.0006002358
138.8993,-0.0005996538
138.9993,-0.000599037
139.0993,-0.0005984578
139.1993,-0.0005978561
139.2993,-0.0005972467
139.3993,-0.0005966299
139.4993,-0.0005960027
139.5993,-0.0005954038
139.6993,-0.0005947804
139.7993,-0.0005940534
139.8993,-0.000593493
139.9993,-0.0005929195
140.0993,-0.0005922641
140.1994,-0.000591716
140.2994,-0.0005912611
140.3994,-0.0005906405
140.4994,-0.0005900275
140.5994,-0.000589421
140.6994,-0.0005887956
140.7994,-0.0005881703
140.8994,-0.0005875611
140.9994,-0.0005869273
141.0994,-0.0005863048
141.1994,-0.0005857077
141.2994,-0.0005851201
141.3994,-0.0005845089
141.4994,-0.0005838704
141.5994,-0.0005832281
141.6994,-0.0005825915
141.7995,-0.0005819888
141.8995,-0.0005814022
141.9995,-0.0005807561
142.0995,-0.0005801798
142.1995,-0.0005795884
142.2995,-0.0005789517
142.3995,-0.0005783857
142.4995,-0.0005778631
142.5995,-0.0005773235
142.6995,-0.0005767227
142.7995,-0.0005761614
142.8995,-0.0005755813
142.9995,-0.0005749512
143.0995,-0.0005743448
143.1995,-0.0005737628
143.2995,-0.000573162
143.3996,-0.0005725517
143.4996,-0.0005720037
143.5996,-0.0005714461
143.6996,-0.0005708848
143.7996,-0.0005702794
143.8996,-0.0005697266
143.9996,-0.0005692058
144.0996,-0.0005685391
144.1996,-0.0005679495
144.2996,-0.0005673731
144.3996,-0.0005667874
144.4996,-0.0005661988
144.5996,-0.0005656112
144.6996,-0.0005650311
144.7996,-0.000564419
144.8996,-0.0005638737
144.9996,-0.0005632888
145.0997,-0.0005626353
145.1997,-0.0005620759
145.2997,-0.0005615109
145.3997,-0.0005609694
145.4997,-0.0005603723
145.5997,-0.0005597338
145.6997,-0.0005591198
145.7997,-0.0005585435
145.8997,-0.0005579756
145.9997,-0.0005573597
146.0997,-0.0005567683
146.1997,-0.0005562099
146.2997,-0.0005556392
146.3997,-0.0005550893
146.4997,-0.0005545054
146.5997,-0.0005539111
146.6998,-0.0005533197
146.7998,-0.0005527349
146.8998,-0.0005522151
146.9998,-0.0005516293
147.0998,-0.0005510746
147.1998,-0.000550502
147.2998,-0.0005499276
147.3998,-0.0005493729
147.4998,-0.0005488352
147.5998,-0.0005482447
147.6998,-0.0005476721
147.7998,-0.00054714
147.8998,-0.0005465788
147.9998,-0.0005460411
148.0998,-0.0005454487
148.1998,-0.0005449072
148.2999,-0.0005443817
148.3999,-0.0005438044
148.4999,-0.0005432093
148.5999,-0.000542713
148.6999,-0.0005421686
148.7999,-0.0005416074
148.8999,-0.0005411798
148.9999,-0.0005406571
149.0999,-0.000540078
149.1999,-0.0005395873
149.2999,-0.0005391043
149.3999,-0.0005385233
149.4999,-0.0005379638
149.5999,-0.0005374289
149.6999,-0.0005368451
149.7999,-0.000536297
149.8999,-0.0005357187
150,-0.000535182
150.1,-0.0005346179
150.2,-0.0005341357
150.3,-0.0005335914
150.4,-0.0005330263
150.5,-0.0005325141
150.6,-0.0005319697
150.7,-0.0005314263
150.8,-0.0005308971
150.9,-0.0005303932
151,-0.0005298282
151.1,-0.0005292679
151.2,-0.000528765
151.3,-0.0005282518
151.4,-0.0005276802
151.5,-0.0005271867
151.6001,-0.0005266141
151.7001,-0.0005260415
151.8001,-0.0005255584
151.9001,-0.0005250367
152.0001,-0.0005244491
152.1001,-0.0005239
152.2001,-0.0005233971
152.3001,-0.0005228537
152.4001,-0.0005223509
152.5001,-0.0005218009
152.6001,-0.0005212142
152.7001,-0.0005207198
152.8001,-0.0005202405
152.9001,-0.0005196735
153.0001,-0.0005191443
153.1001,-0.0005186329
153.2001,-0.0005181065
153.3002,-0.0005176064
153.4002,-0.0005170875
153.5002,-0.00051653
153.6002,-0.0005160206
153.7002,-0.0005155157
153.8002,-0.0005150138
153.9002,-0.0005145241
154.0002,-0.0005139836
154.1002,-0.0005134392
154.2002,-0.0005129109
154.3002,-0.000512441
154.4002,-0.0005119145
154.5002,-0.0005113967
154.6002,-0.0005108919
154.7002,-0.0005104399
154.8002,-0.0005098965
154.9003,-0.0005094331
155.0003,-0.0005089057
155.1003,-0.0005083991
155.2003,-0.0005078953
155.3003,-0.000507367
155.4003,-0.0005068725
155.5003,-0.0005064065
155.6003,-0.0005058686
155.7003,-0.0005053865
155.8003,-0.0005049364
155.9003,-0.000504393
156.0003,-0.0005038779
156.1003,-0.0005034201
156.2003,-0.0005029512
156.3003,-0.0005024154
156.4003,-0.0005019153
156.5004,-0.0005014491
156.6004,-0.0005009877
156.7004,-0.0005005177
156.8004,-0.0004999894
156.9004,-0.0004994546
157.0004,-0.0004989818
157.1004,-0.0004985307
157.2004,-0.0004980203
157.3004,-0.000497508
157.4004,-0.000497008
157.5004,-0.0004964862
157.6004,-0.0004960445
157.7004,-0.0004955586
157.8004,-0.0004950718
157.9004,-0.0004945651
158.0004,-0.0004940829
158.1004,-0.0004935894
158.2005,-0.0004931299
158.3005,-0.0004926533
158.4005,-0.0004921524
158.5005,-0.000491641
158.6005,-0.0004912012
158.7005,-0.000490721
158.8005,-0.0004902153
158.9005,-0.0004897321
159.0005,-0.0004892462
159.1005,-0.0004887197
159.2005,-0.0004882536
159.3005,-0.0004878025
159.4005,-0.0004873015
159.5005,-0.0004867807
159.6005,-0.0004862882
159.7005,-0.000485838
159.8006,-0.0004853267
159.9006,-0.000484853
160.0006,-0.000484368
160.1006,-0.0004838444
160.2006,-0.0004833764
160.3006,-0.0004828933
160.4006,-0.0004824102
160.5006,-0.0004819289
160.6006,-0.0004814854
160.7006,-0.0004809627
160.8006,-0.0004804655
160.9006,-0.0004799786
161.0006,-0.0004795285
161.1006,-0.0004790519
161.2006,-0.0004785651
161.3006,-0.0004781017
161.4007,-0.0004776271
161.5007,-0.0004772005
161.6007,-0.0004767183
161.7007,-0.000476288
161.8007,-0.0004758858
161.9007,-0.0004754536
162.0007,-0.0004749451
162.1007,-0.0004744723
162.2007,-0.0004740363
162.3007,-0.0004735654
162.4007,-0.0004730785
162.5007,-0.0004726002
162.6007,-0.0004721491
162.7007,-0.0004716952
162.8007,-0.0004712177
162.9007,-0.0004707609
163.0007,-0.000470307
163.1008,-0.0004698267
163.2008,-0.0004693568
163.3008,-0.0004689444
163.4008,-0.0004685272
163.5008,-0.0004680346
163.6008,-0.0004676259
163.7008,-0.0004671908
163.8008,-0.0004667285
163.9008,-0.0004662755
164.0008,-0.0004658093
164.1008,-0.0004653856
164.2008,-0.0004648836
164.3008,-0.0004643939
164.4008,-0.0004639588
164.5008,-0.0004635398
164.6008,-0.0004630755
164.7009,-0.0004626065
164.8009,-0.0004621846
164.9009,-0.0004617175
165.0009,-0.0004612636
165.1009,-0.0004608248
165.2009,-0.0004604217
165.3009,-0.0004599122
165.4009,-0.0004594724
165.5009,-0.0004590289
165.6009,-0.0004585655
165.7009,-0.0004581389
165.8009,-0.0004576907
165.9009,-0.0004572264
166.0009,-0.0004568092
166.1009,-0.0004563515
166.2009,-0.0004559004
166.3009,-0.0004554568
166.401,-0.0004550189
166.501,-0.0004546394
166.601,-0.0004542091
166.701,-0.000453742
166.801,-0.0004533135
166.901,-0.0004528991
167.001,-0.0004524603
167.101,-0.0004520026
167.201,-0.0004515694
167.301,-0.0004510938
167.401,-0.0004506766
167.501,-0.0004502623
167.601,-0.0004497829
167.701,-0.0004493573
167.801,-0.0004489156
167.901,-0.0004484636
168.0011,-0.0004480436
168.1011,-0.0004476471
168.2011,-0.0004471875
168.3011,-0.0004467515
168.4011,-0.0004463362
168.5011,-0.0004458992
168.6011,-0.0004454773
168.7011,-0.0004450328
168.8011,-0.0004445733
168.9011,-0.0004441467
169.0011,-0.000443738
169.1011,-0.0004433085
169.2011,-0.0004428763
169.3011,-0.0004424374
169.4011,-0.0004420702
169.5011,-0.0004417057
169.6012,-0.0004413365
169.7012,-0.0004408723
169.8012,-0.0004404212
169.9012,-0.0004400125
170.0012,-0.0004395934
170.1012,-0.0004391772
170.2012,-0.0004387769
170.3012,-0.000438372
170.4012,-0.0004379096
170.5012,-0.0004375197
170.6012,-0.0004370724
170.7012,-0.000436659
170.8012,-0.0004362851
170.9012,-0.0004358444
171.0012,-0.0004354225
171.1012,-0.000435009
171.2012,-0.0004346314
171.3013,-0.0004342632
171.4013,-0.0004338667
171.5013,-0.0004334947
171.6013,-0.0004331077
171.7013,-0.0004326613
171.8013,-0.0004322366
171.9013,-0.0004317977
172.0013,-0.0004313947
172.1013,-0.0004310152
172.2013,-0.0004306074
172.3013,-0.0004301638
172.4013,-0.0004297702
172.5013,-0.0004293417
172.6013,-0.0004289104
172.7013,-0.0004285554
172.8013,-0.0004281429
172.9014,-0.0004276881
173.0014,-0.0004272436
173.1014,-0.0004268443
173.2014,-0.0004264318
173.3014,-0.0004260136
173.4014,-0.0004255851
173.5014,-0.000425152
173.6014,-0.000424748
173.7014,-0.0004243486
173.8014,-0.0004239767
173.9014,-0.0004235294
174.0014,-0.0004231451
174.1014,-0.0004227298
174.2014,-0.0004223117
174.3014,-0.0004219435
174.4014,-0.0004215366
174.5014,-0.0004210846
174.6015,-0.000420691
174.7015,-0.0004203613
174.8015,-0.0004199263
174.9015,-0.0004195345
175.0015,-0.000419139
175.1015,-0.0004187604
175.2015,-0.0004183753
175.3015,-0.0004179863
175.4015,-0.0004175484
175.5015,-0.0004171877
175.6015,-0.0004168346
175.7015,-0.0004163882
175.8015,-0.0004159917
175.9015,-0.0004155811
176.0015,-0.0004151988
176.1015,-0.000414841
176.2016,-0.0004144576
176.3016,-0.0004140367
176.4016,-0.0004136581
176.5016,-0.000413305
176.6016,-0.0004129029
176.7016,-0.0004124744
176.8016,-0.0004121109
176.9016,-0.0004117417
177.0016,-0.0004113113
177.1016,-0.0004109318
177.2016,-0.0004105447
177.3016,-0.0004101078
177.4016,-0.0004097886
177.5016,-0.0004094853
177.6016,-0.0004090625
177.7016,-0.0004086575
177.8017,-0.0004082431
177.9017,-0.0004078279
178.0017,-0.0004074267
178.1017,-0.0004070556
178.2017,-0.0004066535
178.3017,-0.0004062862
178.4017,-0.0004058606
178.5017,-0.0004054283
178.6017,-0.0004050356
178.7017,-0.0004046749
178.8017,-0.0004043237
178.9017,-0.0004039451
179.0017,-0.000403559
179.1017,-0.0004031588
179.2017,-0.0004027642
179.3017,-0.0004023912
179.4017,-0.0004019976
179.5018,-0.0004016096
179.6018,-0.0004012763
179.7018,-0.0004008854
179.8018,-0.0004004165
179.9018,-0.0004000765
180.0018,-0.0003997158
180.1018,-0.000399293
180.2018,-0.0003989313
180.3018,-0.0003985744
180.4018,-0.0003981845
180.5018,-0.0003978069
180.6018,-0.0003974104
180.7018,-0.0003970187
180.8018,-0.0003966599
180.9018,-0.0003963001
181.0018,-0.0003959065
181.1019,-0.0003955401
181.2019,-0.0003952124
181.3019,-0.000394799
181.4019,-0.0003944063
181.5019,-0.0003940682
181.6019,-0.0003937056
181.7019,-0.0003932819
181.8019,-0.0003929325
181.9019,-0.0003926179
182.0019,-0.0003922215
182.1019,-0.0003918505
182.2019,-0.000391502
182.3019,-0.0003911187
182.4019,-0.0003908004
182.5019,-0.0003904059
182.6019,-0.000390032
182.702,-0.0003896666
182.802,-0.0003893087
182.902,-0.0003889075
183.002,-0.0003885629
183.102,-0.000388221
183.202,-0.0003878321
183.302,-0.0003874714
183.402,-0.0003871051
183.502,-0.0003867651
183.602,-0.0003863554
183.702,-0.0003859985
183.802,-0.0003856623
183.902,-0.0003853064
184.002,-0.0003849542
184.102,-0.0003845954
184.202,-0.0003842215
184.302,-0.0003838768
184.4021,-0.0003835208
184.5021,-0.0003831356
184.6021,-0.0003828315
184.7021,-0.0003824689
184.8021,-0.0003820744
184.9021,-0.0003817635
185.0021,-0.0003814396
185.1021,-0.0003810234
185.2021,-0.0003806617
185.3021,-0.000380333
185.4021,-0.0003799658
185.5021,-0.0003796296
185.6021,-0.0003792868
185.7021,-0.0003788884
185.8021,-0.0003785541
185.9021,-0.0003782462
186.0022,-0.0003778572
186.1022,-0.0003774909
186.2022,-0.0003771594
186.3022,-0.0003768053
186.4022,-0.0003764814
186.5022,-0.0003761339
186.6022,-0.0003757431
186.7022,-0.0003754068
186.8022,-0.0003750867
186.9022,-0.0003747109
187.0022,-0.0003743766
187.1022,-0.0003740564
187.2022,-0.0003737617
187.3022,-0.0003733784
187.4022,-0.000373046
187.5022,-0.0003726881
187.6022,-0.0003723378
187.7023,-0.0003720006
187.8023,-0.0003716475
187.9023,-0.0003713217
188.0023,-0.0003709751
188.1023,-0.0003705909
188.2023,-0.0003702509
188.3023,-0.0003699496
188.4023,-0.0003695813
188.5023,-0.0003692357
188.6023,-0.0003689409
188.7023,-0.0003686076
188.8023,-0.000368277
188.9023,-0.0003678975
189.0023,-0.0003676131
189.1023,-0.0003672562
189.2023,-0.0003669002
189.3024,-0.000366564
189.4024,-0.0003662024
189.5024,-0.0003658389
189.6024,-0.0003655177
189.7024,-0.0003651862
189.8024,-0.0003648237
189.9024,-0.0003645064
190.0024,-0.0003641946
190.1024,-0.0003638368
190.2024,-0.0003634977
190.3024,-0.0003631616
190.4024,-0.0003628319
190.5024,-0.0003625155
190.6024,-0.0003621718
190.7024,-0.000361829
190.8024,-0.0003614843
190.9025,-0.0003611886
191.0025,-0.0003608486
191.1025,-0.0003605351
191.2025,-0.0003602017
191.3025,-0.0003598382
191.4025,-0.000359534
191.5025,-0.0003592034
191.6025,-0.0003588814
191.7025,-0.0003585226
191.8025,-0.0003582466
191.9025,-0.0003579425
192.0025,-0.0003576035
192.1025,-0.0003572738
192.2025,-0.0003569499
192.3025,-0.0003565949
192.4025,-0.0003562699
192.5025,-0.0003559827
192.6026,-0.0003556569
192.7026,-0.0003553282
192.8026,-0.0003550146
192.9026,-0.0003546577
193.0026,-0.0003543271
193.1026,-0.0003540136
193.2026,-0.0003537028
193.3026,-0.0003533487
193.4026,-0.0003530728
193.5026,-0.0003527498
193.6026,-0.0003524249
193.7026,-0.0003521348
193.8026,-0.0003517986
193.9026,-0.0003514492
194.0026,-0.0003512063
194.1026,-0.0003508597
194.2027,-0.000350484
194.3027,-0.0003502165
194.4027,-0.0003499133
194.5027,-0.0003495723
194.6027,-0.0003492616
194.7027,-0.0003489084
194.8027,-0.0003485826
194.9027,-0.0003482718
195.0027,-0.0003479714
195.1027,-0.0003476418
195.2027,-0.0003473188
195.3027,-0.0003470165
195.4027,-0.0003466916
195.5027,-0.0003463855
195.6027,-0.0003461153
195.7027,-0.0003457537
195.8027,-0.0003454268
195.9028,-0.0003451161
196.0028,-0.0003448128
196.1028,-0.0003445115
196.2028,-0.000344213
196.3028,-0.0003439097
196.4028,-0.0003435971
196.5028,-0.0003432948
196.6028,-0.000343016
196.7028,-0.0003426761
196.8028,-0.0003423549
196.9028,-0.0003420602
197.0028,-0.0003417334
197.1028,-0.0003414556
197.2028,-0.0003411655
197.3028,-0.0003408312
197.4028,-0.0003405317
197.5029,-0.0003402153
197.6029,-0.0003399008
197.7029,-0.0003396107
197.8029,-0.0003392981
197.9029,-0.0003389967
198.0029,-0.0003387001
198.1029,-0.0003384081
198.2029,-0.0003380748
198.3029,-0.0003378007
198.4029,-0.0003375022
198.5029,-0.000337166
198.6029,-0.0003368853
198.7029,-0.0003366151
198.8029,-0.0003363505
198.9029,-0.0003360528
199.0029,-0.0003357506
199.103,-0.0003354473
199.203,-0.0003351328
199.303,-0.0003348088
199.403,-0.0003345028
199.503,-0.0003341864
199.603,-0.0003339085
199.703,-0.00033361
199.803,-0.0003332861
199.903,-0.000333028
200.003,-0.0003327182
200.103,-0.0003323858
200.203,-0.0003321183
200.303,-0.0003318349
200.403,-0.0003315326
200.503,-0.0003312246
200.603,-0.0003309251
200.703,-0.0003306643
200.8031,-0.0003304119
200.9031,-0.0003301247
201.0031,-0.0003297969
201.1031,-0.0003295342
201.2031,-0.0003292536
201.3031,-0.0003289343
201.4031,-0.0003286245
201.5031,-0.0003283693
201.6031,-0.0003280387
201.7031,-0.0003277176
201.8031,-0.0003274332
201.9031,-0.0003271309
202.0031,-0.0003267947
202.1031,-0.000326532
202.2031,-0.0003262589
202.3031,-0.0003259255
202.4032,-0.0003256524
202.5032,-0.0003253463
202.6032,-0.0003250506
202.7032,-0.0003247596
202.8032,-0.0003244573
202.9032,-0.0003241315
203.0032,-0.0003238207
203.1032,-0.0003235552
203.2032,-0.000323266
203.3032,-0.0003229835
203.4032,-0.0003227029
203.5032,-0.0003223949
203.6032,-0.0003221237
203.7032,-0.0003218421
203.8032,-0.0003215361
203.9032,-0.0003212545
204.0033,-0.000320972
204.1033,-0.0003206781
204.2033,-0.0003203787
204.3033,-0.0003201301
204.4033,-0.0003198278
204.5033,-0.0003195368
204.6033,-0.000319243
204.7033,-0.000318983
204.8033,-0.0003186807
204.9033,-0.0003184349
205.0033,-0.0003181618
205.1033,-0.0003178266
205.2033,-0.000317546
205.3033,-0.0003172795
205.4033,-0.0003169837
205.5033,-0.000316688
205.6033,-0.0003164083
205.7034,-0.0003161061
205.8034,-0.0003158395
205.9034,-0.0003155759
206.0034,-0.0003152406
206.1034,-0.0003149929
206.2034,-0.0003147273
206.3034,-0.0003144345
206.4034,-0.0003141472
206.5034,-0.0003138779
206.6034,-0.0003135869
206.7034,-0.0003133082
206.8034,-0.0003130294
206.9034,-0.0003127507
207.0034,-0.0003125011
207.1034,-0.0003122355
207.2034,-0.0003119361
207.3035,-0.0003116743
207.4035,-0.000311484
207.5035,-0.0003112429
207.6035,-0.0003109482
207.7035,-0.0003106176
207.8035,-0.0003103521
207.9035,-0.0003100536
208.0035,-0.0003097946
208.1035,-0.0003095092
208.2035,-0.0003092088
208.3035,-0.0003089602
208.4035,-0.0003086946
208.5035,-0.0003083546
208.6035,-0.0003080759
208.7035,-0.0003078659
208.8035,-0.0003075796
208.9035,-0.000307282
209.0036,-0.0003070268
209.1036,-0.0003067725
209.2036,-0.0003064994
209.3036,-0.0003062518
209.4036,-0.0003059561
209.5036,-0.0003056623
209.6036,-0.0003054033
209.7036,-0.000305166
209.8036,-0.0003048947
209.9036,-0.0003045943
210.0036,-0.0003043287
210.1036,-0.0003040594
210.2036,-0.000303824
210.3036,-0.000303581
210.4036,-0.0003032806
210.5036,-0.0003030047
210.6037,-0.0003027523
210.7037,-0.0003024858
210.8037,-0.0003022268
210.9037,-0.0003019245
211.0037,-0.000301674
211.1037,-0.0003014207
211.2037,-0.0003011918
211.3037,-0.0003008604
211.4037,-0.0003006315
211.5037,-0.0003004017
211.6037,-0.0003001023
211.7037,-0.0002998329
211.8037,-0.0002996182
211.9037,-0.0002993903
212.0037,-0.000299137
212.1037,-0.000298862
212.2038,-0.0002986096
212.3038,-0.0002983676
212.4038,-0.0002981152
212.5038,-0.0002978167
212.6038,-0.0002975238
212.7038,-0.0002972714
212.8038,-0.0002970096
212.9038,-0.0002967327
213.0038,-0.0002964813
213.1038,-0.0002962336
213.2038,-0.0002959766
213.3038,-0.000295711
213.4038,-0.0002954313
213.5038,-0.0002951723
213.6038,-0.0002949039
213.7038,-0.0002946449
213.8038,-0.0002943794
213.9039,-0.0002941204
214.0039,-0.0002938755
214.1039,-0.0002936477
214.2039,-0.0002933576
214.3039,-0.0002931127
214.4039,-0.0002928877
214.5039,-0.0002925957
214.6039,-0.0002923349
214.7039,-0.0002920703
214.8039,-0.0002918235
214.9039,-0.0002916069
215.0039,-0.0002913225
215.1039,-0.0002910579
215.2039,-0.0002908178
215.3039,-0.0002905625
215.4039,-0.0002902969
215.504,-0.0002900418
215.604,-0.0002897668
215.704,-0.0002895125
215.804,-0.0002892865
215.904,-0.000289035
216.004,-0.0002887413
216.104,-0.0002885378
216.204,-0.0002882873
216.304,-0.000288001
216.404,-0.0002877449
216.504,-0.000287533
216.604,-0.0002872646
216.704,-0.0002870423
216.804,-0.0002867655
216.904,-0.0002865281
217.004,-0.0002862861
217.104,-0.0002860347
217.2041,-0.0002857588
217.3041,-0.0002855148
217.4041,-0.0002852691
217.5041,-0.0002850195
217.6041,-0.0002848585
217.7041,-0.000284607
217.8041,-0.0002843669
217.9041,-0.0002841305
218.0041,-0.000283945
218.1041,-0.0002836559
218.2041,-0.0002834195
218.3041,-0.0002831747
218.4041,-0.0002829147
218.5041,-0.0002826689
218.6041,-0.0002824354
218.7041,-0.0002822329
218.8042,-0.0002819306
218.9042,-0.0002816839
219.0042,-0.0002814814
219.1042,-0.0002812479
219.2042,-0.0002809917
219.3042,-0.0002807205
219.4042,-0.0002805039
219.5042,-0.000280259
219.6042,-0.000280018
219.7042,-0.0002797788
219.8042,-0.0002795386
219.9042,-0.0002793079
220.0042,-0.0002790508
220.1042,-0.0002788031
220.2042,-0.0002785602
220.3042,-0.0002783116
220.4043,-0.0002780516
220.5043,-0.0002778171
220.6043,-0.0002775732
220.7043,-0.0002773331
220.8043,-0.0002771184
220.9043,-0.0002768839
221.0043,-0.0002766061
221.1043,-0.0002764158
221.2043,-0.0002761917
221.3043,-0.0002759393
221.4043,-0.0002756832
221.5043,-0.0002754656
221.6043,-0.0002752114
221.7043,-0.0002750004
221.8043,-0.0002747593
221.9043,-0.0002745446
222.0043,-0.0002742998
222.1044,-0.0002740681
222.2044,-0.0002738007
222.3044,-0.0002735624
222.4044,-0.000273326
222.5044,-0.0002730906
222.6044,-0.0002728721
222.7044,-0.0002726282
222.8044,-0.000272389
222.9044,-0.0002721263
223.0044,-0.0002719351
223.1044,-0.0002717053
223.2044,-0.0002714331
223.3044,-0.00027121
223.4044,-0.000270984
223.5044,-0.0002707391
223.6044,-0.0002705112
223.7045,-0.000270271
223.8045,-0.0002700092
223.9045,-0.0002698143
224.0045,-0.00026961
224.1045,-0.0002693566
224.2045,-0.0002691344
224.3045,-0.0002689121
224.4045,-0.0002686588
224.5045,-0.0002684375
224.6045,-0.0002682077
224.7045,-0.0002679694
224.8045,-0.0002677641
224.9045,-0.0002675269
225.0045,-0.0002672669
225.1045,-0.0002670484
225.2045,-0.0002668507
225.3046,-0.0002666181
225.4046,-0.0002664024
225.5046,-0.0002661952
225.6046,-0.0002659673
225.7046,-0.0002657573
225.8046,-0.000265537
225.9046,-0.0002652846
226.0046,-0.0002651009
226.1046,-0.000264889
226.2046,-0.0002646583
226.3046,-0.0002644022
226.4046,-0.0002642063
226.5046,-0.0002639906
226.6046,-0.0002637872
226.7046,-0.0002635697
226.8046,-0.0002633691
226.9046,-0.0002631233
227.0047,-0.0002629133
227.1047,-0.0002626958
227.2047,-0.0002624462
227.3047,-0.0002622541
227.4047,-0.0002620262
227.5047,-0.0002617456
227.6047,-0.0002615817
227.7047,-0.0002613538
227.8047,-0.0002611061
227.9047,-0.0002608999
228.0047,-0.0002606917
228.1047,-0.0002604629
228.2047,-0.0002602501
228.3047,-0.0002600476
228.4047,-0.0002597952
228.5047,-0.0002595749
228.6048,-0.0002593582
228.7048,-0.0002591435
228.8048,-0.0002589222
228.9048,-0.0002587037
229.0048,-0.0002584504
229.1048,-0.0002582592
229.2048,-0.0002580879
229.3048,-0.000257827
229.4048,-0.0002576029
229.5048,-0.0002574155
229.6048,-0.0002571951
229.7048,-0.0002569672
229.8048,-0.0002567553
229.9048,-0.0002565378
230.0048,-0.0002562948
230.1048,-0.0002561027
230.2048,-0.0002558936
230.3049,-0.0002556629
230.4049,-0.000255468
230.5049,-0.0002552702
230.6049,-0.000255047
230.7049,-0.0002548266
230.8049,-0.0002546251
230.9049,-0.0002544095
231.0049,-0.0002541985
231.1049,-0.0002539876
231.2049,-0.0002537926
231.3049,-0.0002535892
231.4049,-0.0002533679
231.5049,-0.000253157
231.6049,-0.0002529601
231.7049,-0.0002527586
231.8049,-0.0002525608
231.905,-0.0002523414
232.005,-0.0002521597
232.105,-0.0002519431
232.205,-0.0002517321
232.305,-0.0002515767
232.405,-0.0002513808
232.505,-0.0002511482
232.605,-0.0002509345
232.705,-0.0002507555
232.805,-0.0002505399
232.905,-0.0002503327
233.005,-0.0002500973
233.105,-0.0002498901
233.205,-0.0002496763
233.305,-0.0002494343
233.405,-0.0002492102
233.5051,-0.0002490331
233.6051,-0.0002488137
233.7051,-0.0002485651
233.8051,-0.0002483315
233.9051,-0.0002481328
234.0051,-0.0002479388
234.1051,-0.0002477363
234.2051,-0.0002475301
234.3051,-0.0002473154
234.4051,-0.000247112
234.5051,-0.000246934
234.6051,-0.000246691
234.7051,-0.0002464669
234.8051,-0.0002462927
234.9051,-0.0002460676
235.0051,-0.0002458679
235.1051,-0.0002456429
235.2052,-0.0002454527
235.3052,-0.0002452389
235.4052,-0.0002450496
235.5052,-0.0002448462
235.6052,-0.0002446559
235.7052,-0.000244462
235.8052,-0.0002442453
235.9052,-0.000244024
236.0052,-0.0002438743
236.1052,-0.000243669
236.2052,-0.0002434326
236.3052,-0.0002432951
236.4052,-0.0002431322
236.5052,-0.0002429364
236.6052,-0.0002426971
236.7052,-0.0002425116
236.8053,-0.0002423223
236.9053,-0.0002421152
237.0053,-0.0002419344
237.1053,-0.0002417093
237.2053,-0.0002414804
237.3053,-0.000241325
237.4053,-0.0002411339
237.5053,-0.0002408872
237.6053,-0.0002406884
237.7053,-0.0002405067
237.8053,-0.0002403014
237.9053,-0.0002400735
238.0053,-0.0002398842
238.1053,-0.000239693
238.2053,-0.0002394858
238.3053,-0.0002392919
238.4053,-0.0002390828
238.5054,-0.0002389114
238.6054,-0.0002387306
238.7054,-0.0002385036
238.8054,-0.0002382851
238.9054,-0.0002381467
239.0054,-0.00023798
239.1054,-0.0002377823
239.2054,-0.0002375694
239.3054,-0.0002374131
239.4054,-0.0002372116
239.5054,-0.0002370524
239.6054,-0.000236849
239.7054,-0.0002366183
239.8054,-0.0002364591
239.9054,-0.000236268
240.0054,-0.0002360297
240.1055,-0.0002358159
240.2055,-0.000235621
240.3055,-0.0002354326
240.4055,-0.0002352622
240.5055,-0.0002350484
240.6055,-0.0002348393
240.7055,-0.0002346312
240.8055,-0.0002344598
240.9055,-0.0002342319
241.0055,-0.0002340728
241.1055,-0.0002338957
241.2055,-0.0002336914
241.3055,-0.0002334974
241.4055,-0.000233325
241.5055,-0.0002331226
241.6055,-0.0002329342
241.7056,-0.0002327402
241.8056,-0.0002325462
241.9056,-0.0002323391
242.0056,-0.0002321837
242.1056,-0.0002319671
242.2056,-0.0002317627
242.3056,-0.0002315951
242.4056,-0.0002313804
242.5056,-0.00023124
242.6056,-0.0002310602
242.7056,-0.0002308473
242.8056,-0.0002306628
242.9056,-0.0002304942
243.0056,-0.0002302974
243.1056,-0.0002301015
243.2056,-0.0002299405
243.3056,-0.0002297597
243.4057,-0.0002295525
243.5057,-0.0002293575
243.6057,-0.0002291522
243.7057,-0.0002289611
243.8057,-0.0002287859
243.9057,-0.0002286145
244.0057,-0.0002284149
244.1057,-0.0002282491
244.2057,-0.0002280739
244.3057,-0.0002278574
244.4057,-0.0002276812
244.5057,-0.0002275296
244.6057,-0.0002273507
244.7057,-0.0002271341
244.8057,-0.000226941
244.9057,-0.0002267772
245.0058,-0.0002265738
245.1058,-0.0002263977
245.2058,-0.0002262055
245.3058,-0.0002259833
245.4058,-0.0002258185
245.5058,-0.0002256518
245.6058,-0.0002254738
245.7058,-0.0002253109
245.8058,-0.0002251405
245.9058,-0.0002249229
246.0058,-0.0002247487
246.1058,-0.0002245716
246.2058,-0.0002243692
246.3058,-0.0002241733
246.4058,-0.0002239981
246.5058,-0.0002237928
246.6059,-0.0002236139
246.7059,-0.0002234623
246.8059,-0.0002232466
246.9059,-0.0002230526
247.0059,-0.0002228991
247.1059,-0.0002227353
247.2059,-0.0002225516
247.3059,-0.0002223482
247.4059,-0.0002221853
247.5059,-0.0002219866
247.6059,-0.0002218435
247.7059,-0.0002216466
247.8059,-0.0002214197
247.9059,-0.0002212812
248.0059,-0.0002211145
248.1059,-0.0002209187
248.2059,-0.0002207124
248.306,-0.000220557
248.406,-0.0002203819
248.506,-0.0002202491
248.606,-0.0002200363
248.706,-0.0002198404
248.806,-0.0002196643
248.906,-0.0002194995
249.006,-0.0002192923
249.106,-0.0002191124
249.206,-0.0002189523
249.306,-0.0002187517
249.406,-0.0002186124
249.506,-0.0002184466
249.606,-0.0002182366
249.706,-0.0002180389
249.806,-0.0002179447
249.9061,-0.0002177874
250.0061,-0.0002175802
250.1061,-0.0002174041
250.2061,-0.0002172544
250.3061,-0.0002170792
250.4061,-0.0002169097
250.5061,-0.0002167063
250.6061,-0.0002165114
250.7061,-0.0002163541
250.8061,-0.0002161808
250.9061,-0.0002159548
251.0061,-0.0002157702
251.1061,-0.0002156356
251.2061,-0.0002154255
251.3061,-0.0002153182
251.4061,-0.0002151185
251.5061,-0.0002149057
251.6062,-0.0002147729
251.7062,-0.000214627
251.8062,-0.0002144424
251.9062,-0.0002142503
252.0062,-0.0002141052
252.1062,-0.0002139056
252.2062,-0.0002137511
252.3062,-0.0002135722
252.4062,-0.0002133726
252.5062,-0.0002132153
252.6062,-0.0002130646
252.7062,-0.0002128697
252.8062,-0.0002127068
252.9062,-0.0002125382
253.0062,-0.0002123706
253.1062,-0.0002122312
253.2063,-0.0002120683
253.3063,-0.0002118903
253.4063,-0.0002117085
253.5063,-0.000211604
253.6063,-0.0002114251
253.7063,-0.0002112537
253.8063,-0.0002110992
253.9063,-0.0002109561
254.0063,-0.000210763
254.1063,-0.0002105898
254.2063,-0.0002104485
254.3063,-0.0002102498
254.4063,-0.0002100803
254.5063,-0.0002099211
254.6063,-0.0002097526
254.7063,-0.0002096094
254.8064,-0.0002094371
254.9064,-0.0002092591
255.0064,-0.0002091244
255.1064,-0.0002089596
255.2064,-0.0002087675
255.3064,-0.0002086027
255.4064,-0.0002084389
255.5064,-0.0002082627
255.6064,-0.0002080876
255.7064,-0.0002079256
255.8064,-0.000207742
255.9064,-0.0002075866
256.0064,-0.0002074218
256.1064,-0.0002072589
256.2064,-0.0002071053
256.3064,-0.0002069358
256.4064,-0.000206756
256.5064,-0.0002065799
256.6064,-0.0002064292
256.7065,-0.0002062776
256.8065,-0.0002060874
256.9065,-0.0002059235
257.0065,-0.0002057615
257.1065,-0.0002056071
257.2065,-0.0002054677
257.3065,-0.0002053142
257.4065,-0.000205107
257.5065,-0.0002049422
257.6065,-0.0002047793
257.7065,-0.0002046352
257.8065,-0.0002044468
257.9065,-0.0002042858
258.0065,-0.0002041332
258.1065,-0.0002039741
258.2065,-0.00020383
258.3065,-0.0002036558
258.4066,-0.0002035136
258.5066,-0.0002033573
258.6066,-0.0002031633
258.7066,-0.0002030229
258.8066,-0.0002028911
258.9066,-0.000202715
259.0066,-0.0002025624
259.1066,-0.0002023967
259.2066,-0.0002022272
259.3066,-0.0002020803
259.4066,-0.0002019522
259.5066,-0.0002017657
259.6066,-0.0002015858
259.7066,-0.0002014945
259.8066,-0.0002013495
259.9066,-0.0002011828
260.0067,-0.0002010293
260.1067,-0.0002008956
260.2067,-0.0002007392
260.3067,-0.0002005886
260.4067,-0.0002004445
260.5067,-0.0002002693
260.6067,-0.0002001413
260.7067,-0.000199983
260.8067,-0.0001997881
260.9067,-0.0001996158
261.0067,-0.0001995103
261.1067,-0.0001993276
261.2067,-0.0001991684
261.3067,-0.0001990112
261.4067,-0.000198836
261.5067,-0.0001986891
261.6068,-0.000198577
261.7068,-0.0001983915
261.8068,-0.0001982352
261.9068,-0.0001981081
262.0068,-0.0001979291
262.1068,-0.0001977643
262.2068,-0.0001976259
262.3068,-0.0001975091
262.4068,-0.0001973358
262.5068,-0.0001972087
262.6068,-0.0001970345
262.7068,-0.0001968932
262.8068,-0.000196752
262.9068,-0.0001966022
263.0068,-0.0001964176
263.1068,-0.0001962689
263.2068,-0.0001961285
263.3069,-0.0001959797
263.4069,-0.0001958206
263.5069,-0.0001956718
263.6069,-0.0001954938
263.7069,-0.0001953827
263.8069,-0.0001952264
263.9069,-0.0001950333
264.0069,-0.0001948732
264.1069,-0.0001947602
264.2069,-0.0001946208
264.3069,-0.0001944447
264.4069,-0.0001942705
264.5069,-0.0001941311
264.6069,-0.0001939748
264.7069,-0.0001938288
264.8069,-0.0001936659
264.907,-0.0001935143
265.007,-0.0001933909
265.107,-0.0001932139
265.207,-0.00019305
265.307,-0.0001929285
265.407,-0.0001927656
265.507,-0.0001926027
265.607,-0.0001924633
265.707,-0.0001923164
265.807,-0.0001921469
265.907,-0.0001920131
266.007,-0.0001918672
266.107,-0.0001916826
266.207,-0.0001915508
266.307,-0.0001914029
266.407,-0.0001912494
266.507,-0.0001910978
266.6071,-0.0001909481
266.7071,-0.0001908078
266.8071,-0.0001906618
266.9071,-0.0001905205
267.0071,-0.0001903501
267.1071,-0.0001902248
267.2071,-0.0001900807
267.3071,-0.000189898
267.4071,-0.000189769
267.5071,-0.0001896061
267.6071,-0.0001894451
267.7071,-0.0001893141
267.8071,-0.0001891946
267.9071,-0.0001890043
268.0071,-0.0001888668
268.1071,-0.0001887595
268.2072,-0.0001886286
268.3072,-0.000188477
268.4072,-0.0001883253
268.5072,-0.0001881973
268.6072,-0.0001880513
268.7072,-0.0001879326
268.8072,-0.0001877791
268.9072,-0.0001876294
269.0072,-0.0001875635
269.1072,-0.0001874477
269.2072,-0.0001872753
269.3072,-0.0001871143
269.4072,-0.0001870079
269.5072,-0.0001868789
269.6072,-0.0001867244
269.7072,-0.0001866076
269.8073,-0.0001864701
269.9073,-0.0001863204
270.0073,-0.0001861933
270.1073,-0.0001860124
270.2073,-0.0001858797
270.3073,-0.0001857299
270.4073,-0.0001855501
270.5073,-0.0001854041
270.6073,-0.0001852883
270.7073,-0.0001851498
270.8073,-0.0001849747
270.9073,-0.0001848419
271.0073,-0.0001846959
271.1073,-0.000184532
271.2073,-0.0001844379
271.3073,-0.0001842561
271.4073,-0.0001841017
271.5074,-0.0001839755
271.6074,-0.0001838427
271.7074,-0.0001837137
271.8074,-0.0001835865
271.9074,-0.0001834378
272.0074,-0.0001832758
272.1074,-0.0001831665
272.2074,-0.0001830413
272.3074,-0.0001828868
272.4074,-0.0001827362
272.5074,-0.0001826119
272.6074,-0.0001824395
272.7074,-0.0001823406
272.8074,-0.0001821871
272.9074,-0.0001820497
273.0074,-0.0001819329
273.1075,-0.0001817991
273.2075,-0.0001816193
273.3075,-0.0001814921
273.4075,-0.0001813763
273.5075,-0.0001812294
273.6075,-0.0001810853
273.7075,-0.0001809544
273.8075,-0.0001808103
273.9075,-0.0001806917
274.0075,-0.0001805551
274.1075,-0.0001803941
274.2075,-0.0001803159
274.3075,-0.0001801935
274.4075,-0.0001800287
274.5075,-0.000179863
274.6075,-0.0001797443
274.7076,-0.0001796219
274.8076,-0.0001794872
274.9076,-0.0001793601
275.0076,-0.0001792
275.1076,-0.0001790587
275.2076,-0.0001789344
275.3076,-0.0001787903
275.4076,-0.0001786472
275.5076,-0.0001785135
275.6076,-0.0001783844
275.7076,-0.0001782375
275.8076,-0.0001781
275.9076,-0.0001779804
276.0076,-0.0001778448
276.1076,-0.0001776904
276.2076,-0.0001775821
276.3076,-0.000177437
276.4077,-0.0001772986
276.5077,-0.0001771762
276.6077,-0.0001770453
276.7077,-0.0001769078
276.8077,-0.0001768004
276.9077,-0.0001766545
277.0077,-0.0001765207
277.1077,-0.0001764162
277.2077,-0.0001763154
277.3077,-0.000176161
277.4077,-0.0001760376
277.5077,-0.0001758936
277.6077,-0.0001757645
277.7077,-0.0001756289
277.8077,-0.000175483
277.9077,-0.0001753577
278.0078,-0.0001752334
278.1078,-0.0001750903
278.2078,-0.0001749622
278.3078,-0.00017482
278.4078,-0.0001747126
278.5078,-0.0001745685
278.6078,-0.0001744593
278.7078,-0.0001743303
278.8078,-0.000174173
278.9078,-0.0001740591
279.0078,-0.0001739583
279.1078,-0.0001737954
279.2078,-0.0001736692
279.3078,-0.0001735289
279.4078,-0.0001734008
279.5078,-0.0001732821
279.6078,-0.0001731522
279.7079,-0.0001730024
279.8079,-0.0001728753
279.9079,-0.0001727604
280.0079,-0.0001726483
280.1079,-0.0001724958
280.2079,-0.0001723837
280.3079,-0.0001722585
280.4079,-0.0001720758
280.5079,-0.000171992
280.6079,-0.0001718931
280.7079,-0.0001717386
280.8079,-0.0001715861
280.9079,-0.0001714844
281.0079,-0.0001713356
281.1079,-0.000171232
281.2079,-0.0001711143
281.308,-0.000170956
281.408,-0.0001708186
281.508,-0.0001707197
281.608,-0.0001705511
281.708,-0.0001704202
281.808,-0.0001703063
281.908,-0.0001701998
282.008,-0.0001700482
282.108,-0.0001699408
282.208,-0.0001697996
282.308,-0.0001696781
282.408,-0.0001695774
282.508,-0.0001694436
282.608,-0.0001693099
282.708,-0.0001691997
282.808,-0.0001690792
282.9081,-0.0001689492
283.0081,-0.0001688419
283.1081,-0.00016871
283.2081,-0.0001685509
283.3081,-0.0001684746
283.4081,-0.0001683823
283.5081,-0.0001682373
283.6081,-0.0001681026
283.7081,-0.000167966
283.8081,-0.0001678606
283.9081,-0.0001677108
284.0081,-0.0001675997
284.1081,-0.0001674556
284.2081,-0.0001673181
284.3081,-0.0001671929
284.4081,-0.000167062
284.5081,-0.000166917
284.6082,-0.0001667945
284.7082,-0.0001667107
284.8082,-0.0001664875
284.9082,-0.0001664565
285.0082,-0.0001663585
285.1082,-0.0001662003
285.2082,-0.0001660798
285.3082,-0.0001660073
285.4082,-0.0001658679
285.5082,-0.0001657567
285.6082,-0.0001656513
285.7082,-0.0001654705
285.8082,-0.000165332
285.9082,-0.0001652539
286.0082,-0.0001651493
286.1082,-0.0001650024
286.2083,-0.0001648706
286.3083,-0.0001647736
286.4083,-0.0001646342
286.5083,-0.0001645438
286.6083,-0.0001644007
286.7083,-0.0001642613
286.8083,-0.0001641643
286.9083,-0.0001640362
287.0083,-0.0001639015
287.1083,-0.0001638036
287.2083,-0.0001636906
287.3083,-0.0001635512
287.4083,-0.000163442
287.5083,-0.0001633177
287.6083,-0.0001631952
287.7083,-0.0001630728
287.8083,-0.0001629626
287.9084,-0.0001628656
288.0084,-0.000162731
288.1084,-0.0001626406
288.2084,-0.0001624946
288.3084,-0.0001623778
288.4084,-0.0001622658
288.5084,-0.0001621461
288.6084,-0.0001620087
288.7084,-0.0001619211
288.8084,-0.0001617986
288.9084,-0.0001616621
289.0084,-0.0001615576
289.1084,-0.0001614474
289.2084,-0.000161324
289.3084,-0.000161211
289.4084,-0.0001610848
289.5085,-0.0001609568
289.6085,-0.0001608569
289.7085,-0.0001607571
289.8085,-0.0001606111
289.9085,-0.0001604906
290.0085,-0.0001604039
290.1085,-0.0001602862
290.2085,-0.0001601883
290.3085,-0.0001600574
290.4085,-0.0001599237
290.5085,-0.0001598323
290.6085,-0.0001597165
290.7085,-0.0001595875
290.8085,-0.0001594632
290.9085,-0.0001593906
291.0085,-0.0001592692
291.1086,-0.0001591279
291.2086,-0.0001590309
291.3086,-0.000158917
291.4086,-0.0001587804
291.5086,-0.0001586957
291.6086,-0.0001585723
291.7086,-0.000158447
291.8086,-0.0001583472
291.9086,-0.000158221
292.0086,-0.0001581089
292.1086,-0.0001580035
292.2086,-0.0001579008
292.3086,-0.0001577624
292.4086,-0.0001576466
292.5086,-0.0001575797
292.6086,-0.0001574337
292.7086,-0.0001573094
292.8087,-0.0001571974
292.9087,-0.0001570853
293.0087,-0.0001569977
293.1087,-0.0001568819
293.2087,-0.0001567397
293.3087,-0.0001566286
293.4087,-0.0001565344
293.5087,-0.0001564317
293.6087,-0.0001563225
293.7087,-0.0001562048
293.8087,-0.0001560532
293.9087,-0.0001559533
294.0087,-0.0001558563
294.1087,-0.0001557094
294.2087,-0.0001556303
294.3087,-0.0001555314
294.4088,-0.0001553751
294.5088,-0.0001552649
294.6088,-0.0001551642
294.7088,-0.0001550747
294.8088,-0.0001549664
294.9088,-0.0001548515
295.0088,-0.0001547291
295.1088,-0.0001546161
295.2088,-0.0001545332
295.3088,-0.0001544117
295.4088,-0.0001542799
295.5088,-0.0001541923
295.6088,-0.0001540812
295.7088,-0.0001539446
295.8088,-0.0001539041
295.9088,-0.000153809
296.0089,-0.0001536781
296.1089,-0.000153566
296.2089,-0.0001534747
296.3089,-0.0001533579
296.4089,-0.0001532204
296.5089,-0.0001531234
296.6089,-0.0001530161
296.7089,-0.000152904
296.8089,-0.0001527929
296.9089,-0.0001526789
297.0089,-0.0001525697
297.1089,-0.0001524812
297.2089,-0.0001523785
297.3089,-0.0001522476
297.4089,-0.0001521431
297.5089,-0.0001520404
297.6089,-0.000151967
297.709,-0.0001518172
297.809,-0.0001517108
297.909,-0.0001516006
298.009,-0.0001515206
298.109,-0.0001513888
298.209,-0.000151288
298.309,-0.0001511901
298.409,-0.0001510789
298.509,-0.00015098
298.609,-0.0001508925
298.709,-0.0001507785
298.809,-0.0001506646
298.909,-0.0001505638
299.009,-0.0001504903
299.109,-0.0001503679
299.209,-0.0001502361
299.3091,-0.0001501598
299.4091,-0.0001500732
299.5091,-0.0001499451
299.6091,-0.0001498556
299.7091,-0.0001497831
299.8091,-0.0001497002
299.9091,-0.0001495825
300.0091,-0.0001494535
300.1091,-0.0001493424
300.2091,-0.0001492341
300.3091,-0.0001491503
300.4091,-0.0001489996
300.5091,-0.0001488866
300.6091,-0.0001488046
300.7091,-0.0001486963
300.8091,-0.000148588
300.9091,-0.0001484939
301.0092,-0.000148412
301.1092,-0.000148298
301.2092,-0.0001482217
301.3092,-0.0001481304
301.4092,-0.0001479929
301.5092,-0.0001479223
301.6092,-0.0001478347
301.7092,-0.0001476849
301.8092,-0.0001476105
301.9092,-0.0001475625
302.0092,-0.0001474655
302.1092,-0.0001473431
302.2092,-0.0001472969
302.3092,-0.0001471999
302.4092,-0.0001470898
302.5092,-0.0001469805
302.6093,-0.0001468779
302.7093,-0.0001467592
302.8093,-0.0001466217
302.9093,-0.0001465181
303.0093,-0.0001464409
303.1093,-0.0001463015
303.2093,-0.0001461989
303.3093,-0.000146165
303.4093,-0.000146036
303.5093,-0.0001458956
303.6093,-0.0001457949
303.7093,-0.0001457035
303.8093,-0.0001456075
303.9093,-0.000145486
304.0093,-0.0001453796
304.1093,-0.0001452713
304.2094,-0.000145162
304.3094,-0.0001450782
304.4094,-0.0001449793
304.5094,-0.0001448588
304.6094,-0.0001447674
304.7094,-0.0001446648
304.8094,-0.0001445499
304.9094,-0.0001444652
305.0094,-0.0001443634
305.1094,-0.0001442693
305.2094,-0.0001441704
305.3094,-0.0001440753
305.4094,-0.0001439463
305.5094,-0.0001438662
305.6094,-0.0001437711
305.7094,-0.0001436656
305.8094,-0.0001435686
305.9095,-0.0001434565
306.0095,-0.0001433784
306.1095,-0.0001432682
306.2095,-0.0001431533
306.3095,-0.0001430441
306.4095,-0.0001429782
306.5095,-0.0001428877
306.6095,-0.0001427521
306.7095,-0.0001426598
306.8095,-0.0001425854
306.9095,-0.000142464
307.0095,-0.0001423528
307.1095,-0.0001422643
307.2095,-0.0001421673
307.3095,-0.0001420722
307.4095,-0.0001419846
307.5096,-0.0001418726
307.6096,-0.0001417633
307.7096,-0.0001416748
307.8096,-0.0001415938
307.9096,-0.0001414704
308.0096,-0.000141365
308.1096,-0.0001412868
308.2096,-0.0001411747
308.3096,-0.0001411126
308.4096,-0.0001409826
308.5096,-0.0001408734
308.6096,-0.0001407641
308.7096,-0.0001406982
308.8096,-0.0001405636
308.9096,-0.0001405014
309.0096,-0.0001404006
309.1096,-0.0001402914
309.2097,-0.0001402029
309.3097,-0.0001401106
309.4097,-0.0001399957
309.5097,-0.0001399138
309.6097,-0.000139846
309.7097,-0.0001397612
309.8097,-0.0001396482
309.9097,-0.0001395776
310.0097,-0.0001394834
310.1097,-0.0001393892
310.2097,-0.0001392903
310.3097,-0.0001392112
310.4097,-0.0001391124
310.5097,-0.0001390653
310.6097,-0.000138957
310.7097,-0.0001388138
310.8098,-0.000138762
310.9098,-0.000138682
311.0098,-0.0001385774
311.1098,-0.0001384814
311.2098,-0.0001384117
311.3098,-0.0001382751
311.4098,-0.0001381621
311.5098,-0.0001380821
311.6098,-0.000138003
311.7098,-0.0001378919
311.8098,-0.0001378005
311.9098,-0.0001377148
312.0098,-0.0001376018
312.1098,-0.0001375397
312.2098,-0.0001374125
312.3098,-0.0001373391
312.4099,-0.0001372439
312.5099,-0.0001371583
312.6099,-0.0001370585
312.7099,-0.0001369718
312.8099,-0.000136888
312.9099,-0.0001367834
313.0099,-0.0001366817
313.1099,-0.0001365781
313.2099,-0.0001364859
313.3099,-0.000136387
313.4099,-0.000136305
313.5099,-0.0001361911
313.6099,-0.0001360979
313.7099,-0.0001360065
313.8099,-0.0001358945
313.9099,-0.0001358059
314.0099,-0.0001357419
314.11,-0.0001356308
314.21,-0.0001354914
314.31,-0.0001354217
314.41,-0.0001353238
314.51,-0.0001352418
314.61,-0.0001351241
314.71,-0.0001350497
314.81,-0.0001349772
314.91,-0.0001348708
315.01,-0.0001347766
315.11,-0.0001346589
315.21,-0.0001345902
315.31,-0.0001345318
315.41,-0.0001344103
315.51,-0.0001343208
315.61,-0.0001342191
315.7101,-0.0001341513
315.8101,-0.0001340666
315.9101,-0.0001339498
316.0101,-0.0001338612
316.1101,-0.0001337699
316.2101,-0.0001337125
316.3101,-0.000133624
316.4101,-0.0001335166
316.5101,-0.0001334318
316.6101,-0.0001333395
316.7101,-0.000133267
316.8101,-0.0001331832
316.9101,-0.0001330985
317.0101,-0.0001330137
317.1101,-0.0001329431
317.2101,-0.0001328527
317.3102,-0.0001327717
317.4102,-0.0001326991
317.5102,-0.0001326172
317.6102,-0.0001325033
317.7102,-0.000132378
317.8102,-0.0001323055
317.9102,-0.0001322085
318.0102,-0.0001321153
318.1102,-0.0001320315
318.2102,-0.0001319147
318.3102,-0.0001318346
318.4102,-0.0001317612
318.5102,-0.0001316454
318.6102,-0.0001315569
318.7102,-0.0001314692
318.8102,-0.0001313864
318.9102,-0.0001312922
319.0103,-0.0001312056
319.1103,-0.0001311208
319.2103,-0.0001310445
319.3103,-0.0001309635
319.4103,-0.0001308713
319.5103,-0.0001307846
319.6103,-0.0001307469
319.7103,-0.0001306556
319.8103,-0.000130569
319.9103,-0.0001305077
320.0103,-0.0001304315
320.1103,-0.0001303203
320.2103,-0.0001302384
320.3103,-0.0001301395
320.4103,-0.0001300435
320.5103,-0.0001299766
320.6104,-0.0001298815
320.7104,-0.0001297497
320.8104,-0.0001296922
320.9104,-0.0001296046
321.0104,-0.0001295067
321.1104,-0.0001294313
321.2104,-0.000129341
321.3104,-0.000129227
321.4104,-0.000129146
321.5104,-0.0001290933
321.6104,-0.0001289774
321.7104,-0.0001288767
321.8104,-0.0001288381
321.9104,-0.0001287702
322.0104,-0.0001286836
322.1104,-0.0001286205
322.2104,-0.0001285499
322.3105,-0.0001284708
322.4105,-0.0001283794
322.5105,-0.00012829
322.6105,-0.0001281845
322.7105,-0.0001281195
322.8105,-0.0001280592
322.9105,-0.0001279406
323.0105,-0.0001278709
323.1105,-0.000127804
323.2105,-0.0001277344
323.3105,-0.0001276581
323.4105,-0.0001275733
323.5105,-0.0001275112
323.6105,-0.0001274386
323.7105,-0.000127368
323.8105,-0.0001272757
323.9106,-0.000127207
324.0106,-0.0001271543
324.1106,-0.0001270403
324.2106,-0.0001269329
324.3106,-0.0001268906
324.4106,-0.0001268133
324.5106,-0.0001266815
324.6106,-0.0001266052
324.7106,-0.0001265421
324.8106,-0.0001264498
324.9106,-0.0001263556
325.0106,-0.00012627
325.1106,-0.000126172
325.2106,-0.0001261004
325.3106,-0.0001260289
325.4106,-0.0001259413
325.5107,-0.0001258339
325.6107,-0.0001257718
325.7107,-0.0001256908
325.8107,-0.0001256305
325.9107,-0.0001255477
326.0107,-0.0001254384
326.1107,-0.0001253753
326.2107,-0.000125299
326.3107,-0.0001252228
326.4107,-0.0001251418
326.5107,-0.000125074
326.6107,-0.0001249892
326.7107,-0.0001249195
326.8107,-0.0001248385
326.9107,-0.0001247735
327.0107,-0.0001246577
327.1107,-0.0001245786
327.2108,-0.0001245023
327.3108,-0.0001244355
327.4108,-0.0001243705
327.5108,-0.0001242885
327.6108,-0.0001242283
327.7108,-0.000124119
327.8108,-0.000124072
327.9108,-0.0001239693
328.0108,-0.0001238704
328.1108,-0.0001237998
328.2108,-0.0001237037
328.3108,-0.0001236162
328.4108,-0.0001235399
328.5108,-0.0001234721
328.6108,-0.0001233628
328.7108,-0.0001232988
328.8109,-0.0001232225
328.9109,-0.0001231622
329.0109,-0.0001230728
329.1109,-0.000122973
329.2109,-0.000122892
329.3109,-0.0001228355
329.4109,-0.000122746
329.5109,-0.0001226377
329.6109,-0.000122616
329.7109,-0.0001225219
329.8109,-0.0001224315
329.9109,-0.0001223476
330.0109,-0.0001222836
330.1109,-0.0001221621
330.2109,-0.0001220934
330.3109,-0.0001220369
330.4109,-0.0001219484
330.511,-0.0001218523
330.611,-0.0001217779
330.711,-0.0001217035
330.811,-0.0001216178
330.911,-0.0001215632
331.011,-0.0001214737
331.111,-0.0001213833
331.211,-0.0001213127
331.311,-0.0001212411
331.411,-0.0001211413
331.511,-0.0001210923
331.611,-0.0001210151
331.711,-0.0001209134
331.811,-0.0001208399
331.911,-0.0001207712
332.011,-0.0001207034
332.1111,-0.0001206516
332.2111,-0.0001205621
332.3111,-0.0001204915
332.4111,-0.000120418
332.5111,-0.0001203484
332.6111,-0.0001202683
332.7111,-0.0001201666
332.8111,-0.0001201186
332.9111,-0.0001200216
333.0111,-0.0001199359
333.1111,-0.0001199001
333.2111,-0.000119821
333.3111,-0.0001197127
333.4111,-0.0001196458
333.5111,-0.0001195855
333.6111,-0.0001194933
333.7112,-0.0001194029
333.8112,-0.0001193454
333.9112,-0.0001192588
334.0112,-0.0001191853
334.1112,-0.0001191034
334.2112,-0.000119028
334.3112,-0.0001189621
334.4112,-0.0001189066
334.5112,-0.0001187804
334.6112,-0.0001187248
334.7112,-0.0001186796
334.8112,-0.0001185864
334.9112,-0.0001184903
335.0112,-0.0001184395
335.1112,-0.000118399
335.2112,-0.000118302
335.3112,-0.0001182285
335.4113,-0.0001181532
335.5113,-0.0001180901
335.6113,-0.0001180129
335.7113,-0.0001179149
335.8113,-0.0001178415
335.9113,-0.000117784
336.0113,-0.0001177209
336.1113,-0.0001176202
336.2113,-0.0001175702
336.3113,-0.0001175194
336.4113,-0.0001174337
336.5113,-0.0001173499
336.6113,-0.0001172896
336.7113,-0.0001172256
336.8113,-0.0001171578
336.9113,-0.0001170758
337.0114,-0.0001169873
337.1114,-0.000116911
337.2114,-0.0001168461
337.3114,-0.0001167387
337.4114,-0.0001166605
337.5114,-0.0001165937
337.6114,-0.0001165202
337.7114,-0.0001164392
337.8114,-0.0001163705
337.9114,-0.0001163027
338.0114,-0.0001162179
338.1114,-0.0001161219
338.2114,-0.0001160315
338.3114,-0.0001159797
338.4114,-0.0001159109
338.5114,-0.0001158318
338.6115,-0.0001157339
338.7115,-0.000115683
338.8115,-0.0001156482
338.9115,-0.0001155342
339.0115,-0.0001154589
339.1115,-0.0001154118
339.2115,-0.0001153449
339.3115,-0.0001152884
339.4115,-0.0001152056
339.5115,-0.0001151283
339.6115,-0.0001150709
339.7115,-0.0001150087
339.8115,-0.0001149419
339.9115,-0.0001148505
340.0115,-0.000114778
340.1115,-0.0001147102
340.2115,-0.0001146236
340.3116,-0.0001145878
340.4116,-0.0001145181
340.5116,-0.0001144333
340.6116,-0.0001143797
340.7116,-0.0001143024
340.8116,-0.0001142478
340.9116,-0.0001141631
341.0116,-0.0001141226
341.1116,-0.0001140717
341.2116,-0.0001139672
341.3116,-0.0001138862
341.4116,-0.0001138127
341.5116,-0.0001137346
341.6116,-0.0001136734
341.7116,-0.0001135877
341.8116,-0.0001134935
341.9117,-0.0001134285
342.0117,-0.0001133579
342.1117,-0.0001132778
342.2117,-0.0001132223
342.3117,-0.0001131422
342.4117,-0.0001130546
342.5117,-0.0001130076
342.6117,-0.0001129256
342.7117,-0.0001128512
342.8117,-0.0001128004
342.9117,-0.0001127147
343.0117,-0.0001126271
343.1117,-0.00011258
343.2117,-0.000112515
343.3117,-0.0001124274
343.4117,-0.0001123775
343.5117,-0.0001123201
343.6118,-0.0001122363
343.7118,-0.0001121402
343.8118,-0.0001121148
343.9118,-0.0001120602
344.0118,-0.0001119669
344.1118,-0.0001119443
344.2118,-0.0001119029
344.3118,-0.000111836
344.4118,-0.0001117965
344.5118,-0.0001117437
344.6118,-0.0001116986
344.7118,-0.0001116694
344.8118,-0.0001116025
344.9118,-0.0001114914
345.0118,-0.0001114914
345.1118,-0.0001114132
345.2119,-0.0001112795
345.3119,-0.000111223
345.4119,-0.0001111552
345.5119,-0.0001110525
345.6119,-0.0001110035
345.7119,-0.0001109376
345.8119,-0.0001108416
345.9119,-0.0001108124
346.0119,-0.0001107549
346.1119,-0.0001106598
346.2119,-0.000110609
346.3119,-0.0001105807
346.4119,-0.0001105223
346.5119,-0.0001104536
346.6119,-0.0001103867
346.7119,-0.0001103076
346.812,-0.0001102511
346.912,-0.0001102285
347.012,-0.0001101428
347.112,-0.0001100515
347.212,-0.0001100204
347.312,-0.0001099356
347.412,-0.0001098725
347.512,-0.0001098179
347.612,-0.0001097567
347.712,-0.0001096955
347.812,-0.0001096493
347.912,-0.0001095815
348.012,-0.0001095297
348.112,-0.0001094516
348.212,-0.0001093875
348.312,-0.0001093348
348.412,-0.0001092595
348.5121,-0.0001091851
348.6121,-0.0001091248
348.7121,-0.000109057
348.8121,-0.0001090043
348.9121,-0.0001089214
349.0121,-0.0001088733
349.1121,-0.0001087773
349.2121,-0.0001087189
349.3121,-0.0001086935
349.4121,-0.0001086389
349.5121,-0.0001085541
349.6121,-0.0001084816
349.7121,-0.0001084383
349.8121,-0.0001083545
349.9121,-0.000108281
350.0121,-0.0001082292
350.1122,-0.0001081755
350.2122,-0.0001080823
350.3122,-0.000108022
350.4122,-0.0001079514
350.5122,-0.0001078648
350.6122,-0.0001078374
350.7122,-0.0001077583
350.8122,-0.0001076482
350.9122,-0.0001075888
351.0122,-0.0001075399
351.1122,-0.000107472
351.2122,-0.0001073854
351.3122,-0.0001073308
351.4122,-0.0001072668
351.5122,-0.0001072074
351.6122,-0.0001071462
351.7122,-0.0001070822
351.8123,-0.0001070389
351.9123,-0.0001069673
352.0123,-0.0001069127
352.1123,-0.000106842
352.2123,-0.0001067526
352.3123,-0.0001066848
352.4123,-0.0001065991
352.5123,-0.0001065595
352.6123,-0.0001064814
352.7123,-0.0001064136
352.8123,-0.000106342
352.9123,-0.00010626
353.0123,-0.0001061998
353.1123,-0.0001061499
353.2123,-0.0001060755
353.3123,-0.0001059917
353.4124,-0.0001059361
353.5124,-0.0001058815
353.6124,-0.0001057911
353.7124,-0.0001057176
353.8124,-0.0001056771
353.9124,-0.0001056084
354.0124,-0.0001055396
354.1124,-0.0001054803
354.2124,-0.0001054021
354.3124,-0.0001053645
354.4124,-0.0001052759
354.5124,-0.000105194
354.6124,-0.0001051403
354.7124,-0.0001051168
354.8124,-0.0001050462
354.9124,-0.0001049397
355.0125,-0.0001049049
355.1125,-0.0001048314
355.2125,-0.0001047297
355.3125,-0.0001047109
355.4125,-0.0001046365
355.5125,-0.0001045489
355.6125,-0.0001045122
355.7125,-0.0001044642
355.8125,-0.0001043869
355.9125,-0.0001043333
356.0125,-0.0001042598
356.1125,-0.0001041948
356.2125,-0.0001041572
356.3125,-0.0001041082
356.4125,-0.0001040131
356.5125,-0.0001039387
356.6125,-0.0001039217
356.7126,-0.0001038342
356.8126,-0.0001037814
356.9126,-0.0001037145
357.0126,-0.0001036665
357.1126,-0.0001036025
357.2126,-0.0001035328
357.3126,-0.0001034641
357.4126,-0.0001033981
357.5126,-0.0001033473
357.6126,-0.0001032832
357.7126,-0.0001032154
357.8126,-0.0001031599
357.9126,-0.0001030704
358.0126,-0.0001030111
358.1126,-0.00010298
358.2126,-0.0001029094
358.3127,-0.000102866
358.4127,-0.0001027954
358.5127,-0.0001027276
358.6127,-0.0001026306
358.7127,-0.0001025958
358.8127,-0.0001025572
358.9127,-0.0001024602
359.0127,-0.0001024225
359.1127,-0.0001023603
359.2127,-0.0001023057
359.3127,-0.0001022615
359.4127,-0.0001021955
359.5127,-0.000102124
359.6127,-0.0001020665
359.7127,-0.000102011
359.8127,-0.0001019356
359.9128,-0.0001018772
360.0128,-0.0001018358
360.1128,-0.0001017529
360.2128,-0.0001016908
360.3128,-0.0001016587
360.4128,-0.0001015702
360.5128,-0.0001015184
360.6128,-0.0001014638
360.7128,-0.000101413
360.8128,-0.0001013593
360.9128,-0.0001013084
361.0128,-0.0001012293
361.1128,-0.0001011917
361.2128,-0.0001011474
361.3128,-0.0001010702
361.4128,-0.0001009911
361.5128,-0.0001009628
361.6129,-0.0001009148
361.7129,-0.0001008347
361.8129,-0.0001007632
361.9129,-0.0001007161
362.0129,-0.0001006407
362.1129,-0.0001006125
362.2129,-0.0001005362
362.3129,-0.0001004703
362.4129,-0.0001004185
362.5129,-0.0001003695
362.6129,-0.0001002942
362.7129,-0.0001002273
362.8129,-0.0001001802
362.9129,-0.0001001077
363.0129,-0.0001000616
363.1129,-0.0001000164
363.213,-9.992314E-05
363.313,-9.988641E-05
363.413,-9.984403E-05
363.513,-9.978941E-05
363.613,-9.97056E-05
363.713,-9.965568E-05
363.813,-9.958035E-05
363.913,-9.952196E-05
364.013,-9.948712E-05
364.113,-9.94212E-05
364.213,-9.934868E-05
364.313,-9.928935E-05
364.413,-9.922531E-05
364.513,-9.916411E-05
364.613,-9.91236E-05
364.713,-9.905487E-05
364.813,-9.897387E-05
364.9131,-9.893526E-05
365.0131,-9.887404E-05
365.1131,-9.882979E-05
365.2131,-9.877893E-05
365.3131,-9.870265E-05
365.4131,-9.86405E-05
365.5131,-9.86E-05
365.6131,-9.854256E-05
365.7131,-9.847381E-05
365.8131,-9.843802E-05
365.9131,-9.836457E-05
366.0131,-9.829771E-05
366.1131,-9.823744E-05
366.2131,-9.82026E-05
366.3131,-9.814985E-05
366.4131,-9.808488E-05
366.5132,-9.801425E-05
366.6132,-9.796528E-05
366.7132,-9.791631E-05
366.8132,-9.786263E-05
366.9132,-9.777788E-05
367.0132,-9.77515E-05
367.1132,-9.772231E-05
367.2132,-9.765357E-05
367.3132,-9.758952E-05
367.4132,-9.753113E-05
367.5132,-9.745957E-05
367.6132,-9.740683E-05
367.7132,-9.736351E-05
367.8132,-9.727028E-05
367.9132,-9.722037E-05
368.0132,-9.722885E-05
368.1133,-9.71827E-05
368.2133,-9.708947E-05
368.3133,-9.707911E-05
368.4133,-9.700566E-05
368.5133,-9.693314E-05
368.6133,-9.690395E-05
368.7133,-9.685309E-05
368.8133,-9.677681E-05
368.9133,-9.671559E-05
369.0133,-9.668829E-05
369.1133,-9.6596E-05
369.2133,-9.653667E-05
369.3133,-9.650466E-05
369.4133,-9.644909E-05
369.5133,-9.638128E-05
369.6133,-9.632196E-05
369.7133,-9.6289E-05
369.8134,-9.623625E-05
369.9134,-9.618918E-05
370.0134,-9.610158E-05
370.1134,-9.605922E-05
370.2134,-9.602532E-05
370.3134,-9.595563E-05
370.4134,-9.589253E-05
370.5134,-9.584262E-05
370.6134,-9.578046E-05
370.7134,-9.573149E-05
370.8134,-9.568252E-05
370.9134,-9.561E-05
371.0134,-9.556574E-05
371.1134,-9.55083E-05
371.2134,-9.54452E-05
371.3134,-9.537928E-05
371.4135,-9.535103E-05
371.5135,-9.528417E-05
371.6135,-9.522295E-05
371.7135,-9.518152E-05
371.8135,-9.51335E-05
371.9135,-9.507887E-05
372.0135,-9.500824E-05
372.1135,-9.497622E-05
372.2135,-9.492255E-05
372.3135,-9.48877E-05
372.4135,-9.483025E-05
372.5135,-9.477846E-05
372.6135,-9.471348E-05
372.7135,-9.468428E-05
372.8135,-9.461931E-05
372.9135,-9.455904E-05
373.0135,-9.453361E-05
373.1136,-9.44498E-05
373.2136,-9.438294E-05
373.3136,-9.435091E-05
373.4136,-9.430854E-05
373.5136,-9.424921E-05
373.6136,-9.418422E-05
373.7136,-9.411642E-05
373.8136,-9.404579E-05
373.9136,-9.402978E-05
374.0136,-9.397517E-05
374.1136,-9.389888E-05
374.2136,-9.386781E-05
374.3136,-9.380283E-05
374.4136,-9.374161E-05
374.5136,-9.371713E-05
374.6136,-9.364744E-05
374.7137,-9.357587E-05
374.8137,-9.353725E-05
374.9137,-9.349111E-05
375.0137,-9.343932E-05
375.1137,-9.338564E-05
375.2137,-9.331877E-05
375.3137,-9.326699E-05
375.4137,-9.324533E-05
375.5137,-9.318976E-05
375.6137,-9.312101E-05
375.7137,-9.30777E-05
375.8137,-9.305415E-05
375.9137,-9.299576E-05
376.0137,-9.295244E-05
376.1137,-9.285544E-05
376.2137,-9.282531E-05
376.3138,-9.277634E-05
376.4138,-9.273302E-05
376.5138,-9.266615E-05
376.6138,-9.262755E-05
376.7138,-9.259082E-05
376.8138,-9.251737E-05
376.9138,-9.247686E-05
377.0138,-9.240624E-05
377.1138,-9.23422E-05
377.2138,-9.232054E-05
377.3138,-9.228098E-05
377.4138,-9.219717E-05
377.5138,-9.212937E-05
377.6138,-9.21369E-05
377.7138,-9.206722E-05
377.8138,-9.196456E-05
377.9138,-9.196268E-05
378.0139,-9.192878E-05
378.1139,-9.186945E-05
378.2139,-9.181107E-05
378.3139,-9.17508E-05
378.4139,-9.169335E-05
378.5139,-9.164626E-05
378.6139,-9.160012E-05
378.7139,-9.153702E-05
378.8139,-9.150312E-05
378.9139,-9.142966E-05
379.0139,-9.137975E-05
379.1139,-9.134867E-05
379.2139,-9.129311E-05
379.3139,-9.122813E-05
379.4139,-9.11867E-05
379.5139,-9.113867E-05
379.614,-9.107274E-05
379.714,-9.105862E-05
379.814,-9.100494E-05
379.914,-9.093997E-05
380.014,-9.088158E-05
380.114,-9.086462E-05
380.214,-9.080435E-05
380.314,-9.074785E-05
380.414,-9.07017E-05
380.514,-9.066027E-05
380.614,-9.06226E-05
380.714,-9.053689E-05
380.814,-9.04917E-05
380.914,-9.043708E-05
381.014,-9.044273E-05
381.114,-9.034196E-05
381.2141,-9.029864E-05
381.3141,-9.024968E-05
381.4141,-9.018282E-05
381.5141,-9.015173E-05
381.6141,-9.010277E-05
381.7141,-9.00651E-05
381.8141,-8.99841E-05
381.9141,-8.992948E-05
382.0141,-8.992384E-05
382.1141,-8.989463E-05
382.2141,-8.98193E-05
382.3141,-8.976939E-05
382.4141,-8.971571E-05
382.5141,-8.967145E-05
382.6141,-8.96432E-05
382.7141,-8.955279E-05
382.8141,-8.949723E-05
382.9142,-8.952265E-05
383.0142,-8.946427E-05
383.1142,-8.939741E-05
383.2142,-8.935314E-05
383.3142,-8.931171E-05
383.4142,-8.925144E-05
383.5142,-8.920058E-05
383.6142,-8.91469E-05
383.7142,-8.906309E-05
383.8142,-8.901412E-05
383.9142,-8.896703E-05
384.0142,-8.891147E-05
384.1142,-8.887098E-05
384.2142,-8.880788E-05
384.3142,-8.872312E-05
384.4142,-8.869299E-05
384.5143,-8.86638E-05
384.6143,-8.859693E-05
384.7143,-8.853384E-05
384.8143,-8.849241E-05
384.9143,-8.84472E-05
385.0143,-8.841047E-05
385.1143,-8.835868E-05
385.2143,-8.827957E-05
385.3143,-8.823154E-05
385.4143,-8.820705E-05
385.5143,-8.815809E-05
385.6143,-8.80997E-05
385.7143,-8.805921E-05
385.8143,-8.798764E-05
385.9143,-8.794055E-05
386.0143,-8.795467E-05
386.1143,-8.787274E-05
386.2144,-8.780306E-05
386.3144,-8.777951E-05
386.4144,-8.77409E-05
386.5144,-8.769193E-05
386.6144,-8.763731E-05
386.7144,-8.760059E-05
386.8144,-8.75422E-05
386.9144,-8.750358E-05
387.0144,-8.744143E-05
387.1144,-8.740094E-05
387.2144,-8.735385E-05
387.3144,-8.732183E-05
387.4144,-8.724084E-05
387.5144,-8.720129E-05
387.6144,-8.719752E-05
387.7144,-8.712595E-05
387.8145,-8.707698E-05
387.9145,-8.702707E-05
388.0145,-8.697244E-05
388.1145,-8.694419E-05
388.2145,-8.689711E-05
388.3145,-8.682365E-05
388.4145,-8.678034E-05
388.5145,-8.676339E-05
388.6145,-8.668146E-05
388.7145,-8.662872E-05
388.8145,-8.661459E-05
388.9145,-8.655432E-05
389.0145,-8.650629E-05
389.1145,-8.647428E-05
389.2145,-8.643942E-05
389.3145,-8.638103E-05
389.4146,-8.633207E-05
389.5146,-8.628687E-05
389.6146,-8.625391E-05
389.7146,-8.622471E-05
389.8146,-8.615502E-05
389.9146,-8.611453E-05
390.0146,-8.609381E-05
390.1146,-8.603354E-05
390.2146,-8.596763E-05
390.3146,-8.600247E-05
390.4146,-8.596856E-05
390.5146,-8.589039E-05
390.6146,-8.585273E-05
390.7146,-8.581788E-05
390.8146,-8.575855E-05
390.9146,-8.570017E-05
391.0146,-8.564837E-05
391.1147,-8.559563E-05
391.2147,-8.554856E-05
391.3147,-8.553442E-05
391.4147,-8.545249E-05
391.5147,-8.541482E-05
391.6147,-8.538469E-05
391.7147,-8.53376E-05
391.8147,-8.529617E-05
391.9147,-8.524532E-05
392.0147,-8.520481E-05
392.1147,-8.51502E-05
392.2147,-8.510123E-05
392.3147,-8.508898E-05
392.4147,-8.501176E-05
392.5147,-8.493925E-05
392.6147,-8.498446E-05
392.7148,-8.494396E-05
392.8148,-8.489593E-05
392.9148,-8.483943E-05
393.0148,-8.482907E-05
393.1148,-8.478198E-05
393.2148,-8.475185E-05
393.3148,-8.468216E-05
393.4148,-8.462284E-05
393.5148,-8.462001E-05
393.6148,-8.457668E-05
393.7148,-8.449098E-05
393.8148,-8.443636E-05
393.9148,-8.440717E-05
394.0148,-8.43582E-05
394.1148,-8.429604E-05
394.2148,-8.424425E-05
394.3148,-8.415761E-05
394.4149,-8.414067E-05
394.5149,-8.411524E-05
394.6149,-8.404272E-05
394.7149,-8.39655E-05
394.8149,-8.396738E-05
394.9149,-8.390617E-05
395.0149,-8.386662E-05
395.1149,-8.382989E-05
395.2149,-8.376679E-05
395.3149,-8.369805E-05
395.4149,-8.368016E-05
395.5149,-8.364155E-05
395.6149,-8.357845E-05
395.7149,-8.354643E-05
395.8149,-8.348993E-05
395.9149,-8.343624E-05
396.015,-8.341929E-05
396.115,-8.334301E-05
396.215,-8.332513E-05
396.315,-8.332135E-05
396.415,-8.327804E-05
396.515,-8.31961E-05
396.615,-8.317351E-05
396.715,-8.312077E-05
396.815,-8.307651E-05
396.915,-8.30313E-05
397.015,-8.300776E-05
397.115,-8.297103E-05
397.215,-8.292112E-05
397.315,-8.289381E-05
397.415,-8.28439E-05
397.515,-8.27987E-05
397.6151,-8.27695E-05
397.7151,-8.270735E-05
397.8151,-8.265462E-05
397.9151,-8.263389E-05
398.0151,-8.259717E-05
398.1151,-8.254443E-05
398.2151,-8.250205E-05
398.3151,-8.24512E-05
398.4151,-8.242577E-05
398.5151,-8.240505E-05
398.6151,-8.234667E-05
398.7151,-8.229769E-05
398.8151,-8.225437E-05
398.9151,-8.223271E-05
399.0151,-8.220069E-05
399.1151,-8.213759E-05
399.2151,-8.213948E-05
399.3152,-8.208486E-05
399.4152,-8.201329E-05
399.5152,-8.197374E-05
399.6152,-8.192665E-05
399.7152,-8.187485E-05
399.8152,-8.18645E-05
399.9152,-8.182023E-05
400.0152,-8.174772E-05
400.1152,-8.170441E-05
400.2152,-8.168556E-05
400.3152,-8.162529E-05
400.4152,-8.154431E-05
400.5152,-8.155561E-05
400.6152,-8.152076E-05
400.7152,-8.147275E-05
400.8152,-8.14021E-05
400.9153,-8.13861E-05
401.0153,-8.133995E-05
401.1153,-8.132112E-05
401.2153,-8.125896E-05
401.3153,-8.119305E-05
401.4153,-8.118362E-05
401.5153,-8.113655E-05
401.6153,-8.107344E-05
401.7153,-8.103766E-05
401.8153,-8.098398E-05
401.9153,-8.096703E-05
402.0153,-8.0935E-05
402.1153,-8.087944E-05
402.2153,-8.081729E-05
402.3153,-8.078433E-05
402.4153,-8.076927E-05
402.5154,-8.072312E-05
402.6154,-8.068451E-05
402.7154,-8.06054E-05
402.8154,-8.060446E-05
402.9154,-8.06007E-05
403.0154,-8.052535E-05
403.1154,-8.048015E-05
403.2154,-8.045566E-05
403.3154,-8.041893E-05
403.4154,-8.038221E-05
403.5154,-8.034548E-05
403.6154,-8.032289E-05
403.7154,-8.025225E-05
403.8154,-8.020704E-05
403.9154,-8.019763E-05
404.0154,-8.014395E-05
404.1154,-8.007897E-05
404.2155,-8.004884E-05
404.3155,-8.000175E-05
404.4155,-7.997068E-05
404.5155,-7.993959E-05
404.6155,-7.987933E-05
404.7155,-7.982471E-05
404.8155,-7.980493E-05
404.9155,-7.977762E-05
405.0155,-7.973619E-05
405.1155,-7.967497E-05
405.2155,-7.96147E-05
405.3155,-7.959492E-05
405.4155,-7.957326E-05
405.5155,-7.952241E-05
405.6155,-7.94791E-05
405.7155,-7.9432E-05
405.8156,-7.940187E-05
405.9156,-7.933972E-05
406.0156,-7.933972E-05
406.1156,-7.929074E-05
406.2156,-7.922671E-05
406.3156,-7.919563E-05
406.4156,-7.913536E-05
406.5156,-7.913159E-05
406.6156,-7.911371E-05
406.7156,-7.90572E-05
406.8156,-7.896867E-05
406.9156,-7.897904E-05
407.0156,-7.892159E-05
407.1156,-7.886509E-05
407.2156,-7.883117E-05
407.3156,-7.879916E-05
407.4156,-7.876055E-05
407.5157,-7.871723E-05
407.6157,-7.870876E-05
407.7157,-7.864566E-05
407.8157,-7.860516E-05
407.9157,-7.857408E-05
408.0157,-7.855055E-05
408.1157,-7.84865E-05
408.2157,-7.844884E-05
408.3157,-7.842058E-05
408.4157,-7.842153E-05
408.5157,-7.834524E-05
408.6157,-7.830381E-05
408.7157,-7.828309E-05
408.8157,-7.82652E-05
408.9157,-7.819646E-05
409.0157,-7.814183E-05
409.1158,-7.811264E-05
409.2158,-7.808909E-05
409.3158,-7.804389E-05
409.4158,-7.798738E-05
409.5158,-7.795725E-05
409.6158,-7.791958E-05
409.7158,-7.787721E-05
409.8158,-7.783013E-05
409.9158,-7.778868E-05
410.0158,-7.776985E-05
410.1158,-7.771805E-05
410.2158,-7.767002E-05
410.3158,-7.762577E-05
410.4158,-7.763047E-05
410.5158,-7.757585E-05
410.6158,-7.749769E-05
410.7159,-7.74798E-05
410.8159,-7.746756E-05
410.9159,-7.739033E-05
411.0159,-7.736208E-05
411.1159,-7.734325E-05
411.2159,-7.730369E-05
411.3159,-7.726508E-05
411.4159,-7.721046E-05
411.5159,-7.716902E-05
411.6159,-7.715678E-05
411.7159,-7.710593E-05
411.8159,-7.705413E-05
411.9159,-7.702588E-05
412.0159,-7.699292E-05
412.1159,-7.696278E-05
412.2159,-7.691946E-05
412.3159,-7.690158E-05
412.416,-7.683849E-05
412.516,-7.682341E-05
412.616,-7.67961E-05
412.716,-7.676879E-05
412.816,-7.670098E-05
412.916,-7.666708E-05
413.016,-7.663976E-05
413.116,-7.659833E-05
413.216,-7.65456E-05
413.316,-7.650888E-05
413.416,-7.646649E-05
413.516,-7.645708E-05
413.616,-7.641093E-05
413.716,-7.6329E-05
413.816,-7.633371E-05
413.916,-7.630356E-05
414.0161,-7.624707E-05
414.1161,-7.62273E-05
414.2161,-7.618021E-05
414.3161,-7.611711E-05
414.4161,-7.610675E-05
414.5161,-7.609263E-05
414.6161,-7.603612E-05
414.7161,-7.599657E-05
414.8161,-7.597679E-05
414.9161,-7.592123E-05
415.0161,-7.589298E-05
415.1161,-7.588544E-05
415.2161,-7.581764E-05
415.3161,-7.579409E-05
415.4161,-7.577056E-05
415.5161,-7.573383E-05
415.6161,-7.570651E-05
415.7162,-7.565378E-05
415.8162,-7.56227E-05
415.9162,-7.55888E-05
416.0162,-7.556148E-05
416.1162,-7.553982E-05
416.2162,-7.547955E-05
416.3162,-7.545036E-05
416.4162,-7.539292E-05
416.5162,-7.535524E-05
416.6162,-7.533736E-05
416.7162,-7.530345E-05
416.8162,-7.52526E-05
416.9162,-7.522152E-05
417.0162,-7.519704E-05
417.1162,-7.513583E-05
417.2162,-7.512453E-05
417.3163,-7.510663E-05
417.4163,-7.502753E-05
417.5163,-7.498798E-05
417.6163,-7.49682E-05
417.7163,-7.493241E-05
417.8163,-7.491453E-05
417.9163,-7.488909E-05
418.0163,-7.481187E-05
418.1163,-7.47855E-05
418.2163,-7.476667E-05
418.3163,-7.472147E-05
418.4163,-7.468756E-05
418.5163,-7.464142E-05
418.6163,-7.460752E-05
418.7163,-7.458114E-05
418.8163,-7.457079E-05
418.9164,-7.450298E-05
419.0164,-7.448886E-05
419.1164,-7.448791E-05
419.2164,-7.441163E-05
419.3164,-7.437303E-05
419.4164,-7.43589E-05
419.5164,-7.432782E-05
419.6164,-7.428922E-05
419.7164,-7.426284E-05
419.8164,-7.422612E-05
419.9164,-7.417056E-05
420.0164,-7.414041E-05
420.1164,-7.410558E-05
420.2164,-7.404907E-05
420.3164,-7.403589E-05
420.4164,-7.399538E-05
420.5164,-7.3937E-05
420.6165,-7.391629E-05
420.7165,-7.389275E-05
420.8165,-7.384848E-05
420.9165,-7.381646E-05
421.0165,-7.379292E-05
421.1165,-7.373264E-05
421.2165,-7.371663E-05
421.3165,-7.367897E-05
421.4165,-7.364789E-05
421.5165,-7.358669E-05
421.6165,-7.356596E-05
421.7165,-7.350945E-05
421.8165,-7.350569E-05
421.9165,-7.349157E-05
422.0165,-7.342093E-05
422.1165,-7.337196E-05
422.2166,-7.339833E-05
422.3166,-7.334089E-05
422.4166,-7.33051E-05
422.5166,-7.32646E-05
422.6166,-7.324012E-05
422.7166,-7.320339E-05
422.8166,-7.319021E-05
422.9166,-7.31403E-05
423.0166,-7.309132E-05
423.1166,-7.30659E-05
423.2166,-7.303859E-05
423.3166,-7.296514E-05
423.4166,-7.296608E-05
423.5166,-7.292652E-05
423.6166,-7.284741E-05
423.7166,-7.285872E-05
423.8167,-7.283894E-05
423.9167,-7.274383E-05
424.0167,-7.273912E-05
424.1167,-7.279845E-05
424.2167,-7.273723E-05
424.3167,-7.267884E-05
424.4167,-7.266284E-05
424.5167,-7.262894E-05
424.6167,-7.259881E-05
424.7167,-7.255642E-05
424.8167,-7.250086E-05
424.9167,-7.24453E-05
425.0167,-7.243024E-05
425.1167,-7.240104E-05
425.2167,-7.234265E-05
425.3167,-7.233794E-05
425.4167,-7.228144E-05
425.5168,-7.22513E-05
425.6168,-7.220705E-05
425.7168,-7.216937E-05
425.8168,-7.215902E-05
425.9168,-7.210534E-05
426.0168,-7.208461E-05
426.1168,-7.206295E-05
426.2168,-7.202717E-05
426.3168,-7.203376E-05
426.4168,-7.198668E-05
426.5168,-7.195843E-05
426.6168,-7.192453E-05
426.7168,-7.187744E-05
426.8168,-7.182093E-05
426.9168,-7.182376E-05
427.0168,-7.178703E-05
427.1169,-7.174277E-05
427.2169,-7.170605E-05
427.3169,-7.169851E-05
427.4169,-7.165519E-05
427.5169,-7.163353E-05
427.6169,-7.160433E-05
427.7169,-7.158927E-05
427.8169,-7.155819E-05
427.9169,-7.155631E-05
428.0169,-7.146025E-05
428.1169,-7.146684E-05
428.2169,-7.146401E-05
428.3169,-7.139056E-05
428.4169,-7.134348E-05
428.5169,-7.138585E-05
428.6169,-7.138114E-05
428.7169,-7.128414E-05
428.817,-7.124553E-05
428.917,-7.12154E-05
429.017,-7.117585E-05
429.117,-7.114289E-05
429.217,-7.111181E-05
429.317,-7.106472E-05
429.417,-7.102988E-05
429.517,-7.100539E-05
429.617,-7.095737E-05
429.717,-7.091781E-05
429.817,-7.090274E-05
429.917,-7.083965E-05
430.017,-7.081045E-05
430.117,-7.080669E-05
430.217,-7.076996E-05
430.317,-7.071911E-05
430.4171,-7.069839E-05
430.5171,-7.065601E-05
430.6171,-7.062493E-05
430.7171,-7.059009E-05
430.8171,-7.053829E-05
430.9171,-7.050439E-05
431.0171,-7.05317E-05
431.1171,-7.051098E-05
431.2171,-7.043471E-05
431.3171,-7.04187E-05
431.4171,-7.038761E-05
431.5171,-7.035089E-05
431.6171,-7.032075E-05
431.7171,-7.030945E-05
431.8171,-7.023223E-05
431.9171,-7.02134E-05
432.0172,-7.019551E-05
432.1172,-7.015218E-05
432.2172,-7.01098E-05
432.3172,-7.011263E-05
432.4172,-7.003541E-05
432.5172,-7.00307E-05
432.6172,-7.00307E-05
432.7172,-7.000245E-05
432.8172,-6.995725E-05
432.9172,-6.994406E-05
433.0172,-6.989886E-05
433.1172,-6.985177E-05
433.2172,-6.984706E-05
433.3172,-6.98254E-05
433.4172,-6.976513E-05
433.5172,-6.972087E-05
433.6172,-6.969262E-05
433.7173,-6.968885E-05
433.8173,-6.964552E-05
433.9173,-6.95928E-05
434.0173,-6.955701E-05
434.1173,-6.954383E-05
434.2173,-6.952028E-05
434.3173,-6.947132E-05
434.4173,-6.947037E-05
434.5173,-6.947696E-05
434.6173,-6.943459E-05
434.7173,-6.941387E-05
434.8173,-6.936867E-05
434.9173,-6.934983E-05
435.0173,-6.931499E-05
435.1173,-6.928767E-05
435.2173,-6.924623E-05
435.3174,-6.920574E-05
435.4174,-6.916148E-05
435.5174,-6.913135E-05
435.6174,-6.90805E-05
435.7174,-6.908143E-05
435.8174,-6.905224E-05
435.9174,-6.897973E-05
436.0174,-6.894112E-05
436.1174,-6.894299E-05
436.2174,-6.889497E-05
436.3174,-6.887049E-05
436.4174,-6.884036E-05
436.5174,-6.883941E-05
436.6174,-6.881116E-05
436.7174,-6.876407E-05
436.8174,-6.875089E-05
436.9174,-6.869344E-05
437.0175,-6.86925E-05
437.1175,-6.866614E-05
437.2175,-6.862658E-05
437.3175,-6.860586E-05
437.4175,-6.856066E-05
437.5175,-6.855596E-05
437.6175,-6.851922E-05
437.7175,-6.846178E-05
437.8175,-6.845235E-05
437.9175,-6.842317E-05
438.0175,-6.83902E-05
438.1175,-6.832711E-05
438.2175,-6.831675E-05
438.3175,-6.829697E-05
438.4175,-6.825648E-05
438.5175,-6.824424E-05
438.6176,-6.820469E-05
438.7176,-6.817454E-05
438.8176,-6.813877E-05
438.9176,-6.809073E-05
439.0176,-6.806813E-05
439.1176,-6.803517E-05
439.2176,-6.801351E-05
439.3176,-6.800221E-05
439.4176,-6.794288E-05
439.5176,-6.793535E-05
439.6176,-6.791558E-05
439.7176,-6.789579E-05
439.8176,-6.787602E-05
439.9176,-6.782517E-05
440.0176,-6.779408E-05
440.1176,-6.780162E-05
440.2177,-6.776207E-05
440.3177,-6.769239E-05
440.4177,-6.767731E-05
440.5177,-6.766884E-05
440.6177,-6.760198E-05
440.7177,-6.756243E-05
440.8177,-6.755301E-05
440.9177,-6.749838E-05
441.0177,-6.74739E-05
441.1177,-6.747108E-05
441.2177,-6.741834E-05
441.3177,-6.738444E-05
441.4177,-6.73656E-05
441.5177,-6.734488E-05
441.6177,-6.730533E-05
441.7177,-6.729027E-05
441.8177,-6.724129E-05
441.9178,-6.719986E-05
442.0178,-6.720739E-05
442.1178,-6.713959E-05
442.2178,-6.710945E-05
442.3178,-6.70859E-05
442.4178,-6.705577E-05
442.5178,-6.703883E-05
442.6178,-6.702187E-05
442.7178,-6.697007E-05
442.8178,-6.696442E-05
442.9178,-6.694465E-05
443.0178,-6.69051E-05
443.1178,-6.686271E-05
443.2178,-6.684671E-05
443.3178,-6.679868E-05
443.4178,-6.677043E-05
443.5179,-6.675913E-05
443.6179,-6.671581E-05
443.7179,-6.666307E-05
443.8179,-6.667343E-05
443.9179,-6.664235E-05
444.0179,-6.660751E-05
444.1179,-6.655853E-05
444.2179,-6.656513E-05
444.3179,-6.653782E-05
444.4179,-6.647849E-05
444.5179,-6.645966E-05
444.6179,-6.643705E-05
444.7179,-6.643235E-05
444.8179,-6.64088E-05
444.9179,-6.636643E-05
445.0179,-6.634853E-05
445.118,-6.63118E-05
445.218,-6.628544E-05
445.318,-6.626943E-05
445.418,-6.626284E-05
445.518,-6.624212E-05
445.618,-6.619314E-05
445.718,-6.61809E-05
445.818,-6.620162E-05
445.918,-6.614606E-05
446.018,-6.608485E-05
446.118,-6.610651E-05
446.218,-6.607355E-05
446.318,-6.601045E-05
446.418,-6.60001E-05
446.518,-6.59756E-05
446.618,-6.592287E-05
446.718,-6.591251E-05
446.8181,-6.589932E-05
446.9181,-6.585317E-05
447.0181,-6.579574E-05
447.1181,-6.57929E-05
447.2181,-6.57543E-05
447.3181,-6.571192E-05
447.4181,-6.570533E-05
447.5181,-6.567896E-05
447.6181,-6.565071E-05
447.7181,-6.562528E-05
447.8181,-6.560645E-05
447.9181,-6.555748E-05
448.0181,-6.552546E-05
448.1181,-6.551604E-05
448.2181,-6.550756E-05
448.3181,-6.54633E-05
448.4182,-6.540586E-05
448.5182,-6.535783E-05
448.6182,-6.537949E-05
448.7182,-6.535783E-05
448.8182,-6.528531E-05
448.9182,-6.527401E-05
449.0182,-6.525989E-05
449.1182,-6.522128E-05
449.2182,-6.522505E-05
449.3182,-6.517325E-05
449.4182,-6.512146E-05
449.5182,-6.513276E-05
449.6182,-6.509132E-05
449.7182,-6.504612E-05
449.8182,-6.504801E-05
449.9182,-6.501221E-05
450.0182,-6.496136E-05
450.1183,-6.49444E-05
450.2183,-6.49397E-05
450.3183,-6.489261E-05
450.4183,-6.485024E-05
450.5183,-6.489449E-05
450.6183,-6.488414E-05
450.7183,-6.483517E-05
450.8183,-6.479562E-05
450.9183,-6.479091E-05
451.0183,-6.475135E-05
451.1183,-6.473346E-05
451.2183,-6.47184E-05
451.3183,-6.465153E-05
451.4183,-6.464212E-05
451.5183,-6.462893E-05
451.6183,-6.456867E-05
451.7184,-6.454041E-05
451.8184,-6.456112E-05
451.9184,-6.448767E-05
452.0184,-6.447731E-05
452.1184,-6.444717E-05
452.2184,-6.439915E-05
452.3184,-6.437749E-05
452.4184,-6.436995E-05
452.5184,-6.432852E-05
452.6184,-6.428143E-05
452.7184,-6.427578E-05
452.8184,-6.424564E-05
452.9184,-6.422304E-05
453.0184,-6.420139E-05
453.1184,-6.415336E-05
453.2184,-6.412981E-05
453.3185,-6.413923E-05
453.4185,-6.41025E-05
453.5185,-6.406672E-05
453.6185,-6.403092E-05
453.7185,-6.401963E-05
453.8185,-6.398479E-05
453.9185,-6.39716E-05
454.0185,-6.393205E-05
454.1185,-6.38925E-05
454.2185,-6.386895E-05
454.3185,-6.386048E-05
454.4185,-6.382469E-05
454.5185,-6.380962E-05
454.6185,-6.377007E-05
454.7185,-6.375594E-05
454.8185,-6.373994E-05
454.9185,-6.373052E-05
455.0186,-6.367685E-05
455.1186,-6.368249E-05
455.2186,-6.365424E-05
455.3186,-6.36015E-05
455.4186,-6.356007E-05
455.5186,-6.358738E-05
455.6186,-6.353747E-05
455.7186,-6.351298E-05
455.8186,-6.347719E-05
455.9186,-6.345553E-05
456.0186,-6.344612E-05
456.1186,-6.34141E-05
456.2186,-6.338585E-05
456.3186,-6.336042E-05
456.4186,-6.335476E-05
456.5186,-6.331898E-05
456.6187,-6.325494E-05
456.7187,-6.328979E-05
456.8187,-6.326624E-05
456.9187,-6.318903E-05
457.0187,-6.32088E-05
457.1187,-6.318713E-05
457.2187,-6.312404E-05
457.3187,-6.311934E-05
457.4187,-6.309014E-05
457.5187,-6.30713E-05
457.6187,-6.305247E-05
457.7187,-6.304588E-05
457.8187,-6.299219E-05
457.9187,-6.296301E-05
458.0187,-6.295829E-05
458.1187,-6.290744E-05
458.2188,-6.288956E-05
458.3188,-6.288297E-05
458.4188,-6.282928E-05
458.5188,-6.281986E-05
458.6188,-6.279255E-05
458.7188,-6.277089E-05
458.8188,-6.274264E-05
458.9188,-6.27238E-05
459.0188,-6.269744E-05
459.1188,-6.265129E-05
459.2188,-6.263622E-05
459.3188,-6.263058E-05
459.4188,-6.257784E-05
459.5188,-6.25703E-05
459.6188,-6.251004E-05
459.7188,-6.250156E-05
459.8188,-6.250156E-05
459.9189,-6.248272E-05
460.0189,-6.242999E-05
460.1189,-6.241115E-05
460.2189,-6.238573E-05
460.3189,-6.234711E-05
460.4189,-6.235654E-05
460.5189,-6.234146E-05
460.6189,-6.229815E-05
460.7189,-6.224635E-05
460.8189,-6.225106E-05
460.9189,-6.22115E-05
461.0189,-6.21889E-05
461.1189,-6.216159E-05
461.2189,-6.211827E-05
461.3189,-6.210321E-05
461.4189,-6.208626E-05
461.519,-6.204953E-05
461.619,-6.20307E-05
461.719,-6.202881E-05
461.819,-6.200432E-05
461.919,-6.195818E-05
462.019,-6.194688E-05
462.119,-6.192333E-05
462.219,-6.190921E-05
462.319,-6.187248E-05
462.419,-6.183952E-05
462.519,-6.185082E-05
462.619,-6.185364E-05
462.719,-6.178678E-05
462.819,-6.178113E-05
462.919,-6.174252E-05
463.019,-6.173499E-05
463.119,-6.168414E-05
463.2191,-6.167378E-05
463.3191,-6.163799E-05
463.4191,-6.160315E-05
463.5191,-6.158337E-05
463.6191,-6.15796E-05
463.7191,-6.155135E-05
463.8191,-6.151368E-05
463.9191,-6.149579E-05
464.0191,-6.146848E-05
464.1191,-6.145341E-05
464.2191,-6.143552E-05
464.3191,-6.136866E-05
464.4191,-6.136206E-05
464.5191,-6.136583E-05
464.6191,-6.132063E-05
464.7191,-6.132063E-05
464.8192,-6.128767E-05
464.9192,-6.12387E-05
465.0192,-6.123776E-05
465.1192,-6.123587E-05
465.2192,-6.11822E-05
465.3192,-6.115583E-05
465.4192,-6.113322E-05
465.5192,-6.110685E-05
465.6192,-6.109367E-05
465.7192,-6.108708E-05
465.8192,-6.104846E-05
465.9192,-6.101362E-05
466.0192,-6.101551E-05
466.1192,-6.097407E-05
466.2192,-6.09364E-05
466.3192,-6.094582E-05
466.4193,-6.094676E-05
466.5193,-6.090438E-05
466.6193,-6.088555E-05
466.7193,-6.084411E-05
466.8193,-6.082622E-05
466.9193,-6.081209E-05
467.0193,-6.075935E-05
467.1193,-6.077066E-05
467.2193,-6.074617E-05
467.3193,-6.072734E-05
467.4193,-6.066707E-05
467.5193,-6.068966E-05
467.6193,-6.067743E-05
467.7193,-6.060586E-05
467.8193,-6.057854E-05
467.9193,-6.060491E-05
468.0193,-6.059455E-05
468.1194,-6.053617E-05
468.2194,-6.054841E-05
468.3194,-6.051451E-05
468.4194,-6.047495E-05
468.5194,-6.047966E-05
468.6194,-6.043258E-05
468.7194,-6.039961E-05
468.8194,-6.04015E-05
468.9194,-6.037136E-05
469.0194,-6.031109E-05
469.1194,-6.030073E-05
469.2194,-6.028472E-05
469.3194,-6.022069E-05
469.4194,-6.022257E-05
469.5194,-6.023104E-05
469.6194,-6.016795E-05
469.7195,-6.013687E-05
469.8195,-6.014535E-05
469.9195,-6.010956E-05
470.0195,-6.006342E-05
470.1195,-6.004929E-05
470.2195,-6.00314E-05
470.3195,-6.000315E-05
470.4195,-5.998337E-05
470.5195,-5.995794E-05
470.6195,-5.991651E-05
470.7195,-5.992027E-05
470.8195,-5.989956E-05
470.9195,-5.98487E-05
471.0195,-5.982421E-05
471.1195,-5.981951E-05
471.2195,-5.978843E-05
471.3195,-5.977524E-05
471.4196,-5.975453E-05
471.5196,-5.968767E-05
471.6196,-5.968484E-05
471.7196,-5.969614E-05
471.8196,-5.965659E-05
471.9196,-5.959632E-05
472.0196,-5.963681E-05
472.1196,-5.960574E-05
472.2196,-5.957843E-05
472.3196,-5.956053E-05
472.4196,-5.955582E-05
472.5196,-5.95417E-05
472.6196,-5.954546E-05
472.7196,-5.951344E-05
472.8196,-5.945694E-05
472.9196,-5.944187E-05
473.0197,-5.947295E-05
473.1197,-5.937407E-05
473.2197,-5.934676E-05
473.3197,-5.936088E-05
473.4197,-5.931756E-05
473.5197,-5.930721E-05
473.6197,-5.928931E-05
473.7197,-5.92846E-05
473.8197,-5.924034E-05
473.9197,-5.920832E-05
474.0197,-5.917536E-05
474.1197,-5.918196E-05
474.2197,-5.91424E-05
474.3197,-5.910662E-05
474.4197,-5.906235E-05
474.5197,-5.905859E-05
474.6198,-5.903693E-05
474.7198,-5.900491E-05
474.8198,-5.901339E-05
474.9198,-5.898042E-05
475.0198,-5.895311E-05
475.1198,-5.896159E-05
475.2198,-5.891921E-05
475.3198,-5.887684E-05
475.4198,-5.887024E-05
475.5198,-5.885141E-05
475.6198,-5.883069E-05
475.7198,-5.878643E-05
475.8198,-5.878455E-05
475.9198,-5.8761E-05
476.0198,-5.872616E-05
476.1198,-5.874687E-05
476.2198,-5.870167E-05
476.3199,-5.866023E-05
476.4199,-5.866589E-05
476.5199,-5.865082E-05
476.6199,-5.859714E-05
476.7199,-5.857831E-05
476.8199,-5.858207E-05
476.9199,-5.853405E-05
477.0199,-5.850862E-05
477.1199,-5.84879E-05
477.2199,-5.846341E-05
477.3199,-5.8454E-05
477.4199,-5.84427E-05
477.5199,-5.840408E-05
477.6199,-5.838808E-05
477.7199,-5.839278E-05
477.8199,-5.834758E-05
477.92,-5.832969E-05
478.02,-5.832498E-05
478.12,-5.832309E-05
478.22,-5.829202E-05
478.32,-5.827883E-05
478.42,-5.825152E-05
478.52,-5.821668E-05
478.62,-5.823457E-05
478.72,-5.82035E-05
478.82,-5.815547E-05
478.92,-5.815358E-05
479.02,-5.815264E-05
479.12,-5.812721E-05
479.22,-5.806977E-05
479.32,-5.806412E-05
479.42,-5.802833E-05
479.5201,-5.804434E-05
479.6201,-5.802739E-05
479.7201,-5.798219E-05
479.8201,-5.794358E-05
479.9201,-5.793981E-05
480.0201,-5.791062E-05
480.1201,-5.789084E-05
480.2201,-5.788236E-05
480.3201,-5.782775E-05
480.4201,-5.784563E-05
480.5201,-5.781174E-05
480.6201,-5.777878E-05
480.7201,-5.774675E-05
480.8201,-5.774864E-05
480.9201,-5.773546E-05
481.0201,-5.771474E-05
481.1201,-5.770438E-05
481.2202,-5.764599E-05
481.3202,-5.764976E-05
481.4202,-5.764034E-05
481.5202,-5.761962E-05
481.6202,-5.7565E-05
481.7202,-5.758666E-05
481.8202,-5.759985E-05
481.9202,-5.755087E-05
482.0202,-5.750097E-05
482.1202,-5.752639E-05
482.2202,-5.748684E-05
482.3202,-5.743787E-05
482.4202,-5.741433E-05
482.5202,-5.74002E-05
482.6202,-5.739172E-05
482.7202,-5.734464E-05
482.8203,-5.731827E-05
482.9203,-5.732298E-05
483.0203,-5.733428E-05
483.1203,-5.726647E-05
483.2203,-5.725423E-05
483.3203,-5.726741E-05
483.4203,-5.725423E-05
483.5203,-5.721844E-05
483.6203,-5.719302E-05
483.7203,-5.716759E-05
483.8203,-5.7161E-05
483.9203,-5.715158E-05
484.0203,-5.711768E-05
484.1203,-5.707813E-05
484.2203,-5.711297E-05
484.3203,-5.705364E-05
484.4203,-5.700938E-05
484.5204,-5.701315E-05
484.6204,-5.700373E-05
484.7204,-5.696794E-05
484.8204,-5.695194E-05
484.9204,-5.692651E-05
485.0204,-5.691615E-05
485.1204,-5.68992E-05
485.2204,-5.685588E-05
485.3204,-5.684929E-05
485.4204,-5.685305E-05
485.5204,-5.682857E-05
485.6204,-5.680503E-05
485.7204,-5.676359E-05
485.8204,-5.677583E-05
485.9204,-5.673816E-05
486.0204,-5.669296E-05
486.1205,-5.667695E-05
486.2205,-5.667978E-05
486.3205,-5.665811E-05
486.4205,-5.66261E-05
486.5205,-5.660726E-05
486.6205,-5.659125E-05
486.7205,-5.657336E-05
486.8205,-5.654229E-05
486.9205,-5.654793E-05
487.0205,-5.653192E-05
487.1205,-5.649237E-05
487.2205,-5.646506E-05
487.3205,-5.644434E-05
487.4205,-5.644529E-05
487.5205,-5.63982E-05
487.6205,-5.63803E-05
487.7206,-5.637654E-05
487.8206,-5.636618E-05
487.9206,-5.635205E-05
488.0206,-5.630967E-05
488.1206,-5.630214E-05
488.2206,-5.630685E-05
488.3206,-5.628613E-05
488.4206,-5.622115E-05
488.5206,-5.622492E-05
488.6206,-5.623998E-05
488.7206,-5.619102E-05
488.8206,-5.617594E-05
488.9206,-5.615711E-05
489.0206,-5.613263E-05
489.1206,-5.612698E-05
489.2206,-5.61138E-05
489.3206,-5.605729E-05
489.4207,-5.602904E-05
489.5207,-5.605164E-05
489.6207,-5.601491E-05
489.7207,-5.596783E-05
489.8207,-5.597913E-05
489.9207,-5.595182E-05
490.0207,-5.591321E-05
490.1207,-5.590284E-05
490.2207,-5.590661E-05
490.3207,-5.586424E-05
490.4207,-5.583598E-05
490.5207,-5.586235E-05
490.6207,-5.584352E-05
490.7207,-5.581433E-05
490.8207,-5.57889E-05
490.9207,-5.577195E-05
491.0208,-5.574181E-05
491.1208,-5.575594E-05
491.2208,-5.571544E-05
491.3208,-5.569378E-05
491.4208,-5.567401E-05
491.5208,-5.564858E-05
491.6208,-5.56401E-05
491.7208,-5.562315E-05
491.8208,-5.560903E-05
491.9208,-5.557983E-05
492.0208,-5.556194E-05
492.1208,-5.554028E-05
492.2208,-5.552333E-05
492.3208,-5.552145E-05
492.4208,-5.548942E-05
492.5208,-5.547059E-05
492.6208,-5.544516E-05
492.7209,-5.543763E-05
492.8209,-5.542256E-05
492.9209,-5.539431E-05
493.0209,-5.537171E-05
493.1209,-5.53444E-05
493.2209,-5.534722E-05
493.3209,-5.533499E-05
493.4209,-5.52879E-05
493.5209,-5.527471E-05
493.6209,-5.527377E-05
493.7209,-5.526247E-05
493.8209,-5.523233E-05
493.9209,-5.523233E-05
494.0209,-5.518807E-05
494.1209,-5.519467E-05
494.2209,-5.51617E-05
494.321,-5.512403E-05
494.421,-5.512686E-05
494.521,-5.512403E-05
494.621,-5.510614E-05
494.721,-5.506376E-05
494.821,-5.504211E-05
494.921,-5.50195E-05
495.021,-5.501573E-05
495.121,-5.500067E-05
495.221,-5.496959E-05
495.321,-5.494793E-05
495.421,-5.493945E-05
495.521,-5.49291E-05
495.621,-5.489613E-05
495.721,-5.48839E-05
495.821,-5.484717E-05
495.9211,-5.484246E-05
496.0211,-5.483963E-05
496.1211,-5.48434E-05
496.2211,-5.477277E-05
496.3211,-5.475299E-05
496.4211,-5.475582E-05
496.5211,-5.474169E-05
496.6211,-5.473322E-05
496.7211,-5.470779E-05
496.8211,-5.466259E-05
496.9211,-5.46786E-05
497.0211,-5.465599E-05
497.1211,-5.46268E-05
497.2211,-5.460703E-05
497.3211,-5.461268E-05
497.4211,-5.459572E-05
497.5211,-5.456465E-05
497.6212,-5.454204E-05
497.7212,-5.454864E-05
497.8212,-5.451285E-05
497.9212,-5.448742E-05
498.0212,-5.446388E-05
498.1212,-5.446482E-05
498.2212,-5.446765E-05
498.3212,-5.441585E-05
498.4212,-5.437441E-05
498.5212,-5.439419E-05
498.6212,-5.438007E-05
498.7212,-5.434993E-05
498.8212,-5.432262E-05
498.9212,-5.431509E-05
499.0212,-5.428495E-05
499.1212,-5.428778E-05
499.2213,-5.428966E-05
499.3213,-5.423786E-05
499.4213,-5.42115E-05
499.5213,-5.421432E-05
499.6213,-5.417854E-05
499.7213,-5.419078E-05
499.8213,-5.417571E-05
499.9213,-5.411544E-05
500.0213,-5.413993E-05
500.1213,-5.410791E-05
500.2213,-5.4074E-05
500.3213,-5.411921E-05
500.4213,-5.407118E-05
500.5213,-5.402692E-05
500.6213,-5.402033E-05
500.7213,-5.404575E-05
500.8214,-5.400996E-05
500.9214,-5.396759E-05
501.0214,-5.395346E-05
501.1214,-5.392992E-05
501.2214,-5.392145E-05
501.3214,-5.391014E-05
501.4214,-5.388095E-05
501.5214,-5.386212E-05
501.6214,-5.3864E-05
501.7214,-5.382445E-05
501.8214,-5.379243E-05
501.9214,-5.378301E-05
502.0214,-5.379431E-05
502.1214,-5.37557E-05
502.2214,-5.372839E-05
502.3214,-5.372086E-05
502.4214,-5.368507E-05
502.5215,-5.369449E-05
502.6215,-5.368978E-05
502.7215,-5.362668E-05
502.8215,-5.359937E-05
502.9215,-5.360691E-05
503.0215,-5.359654E-05
503.1215,-5.358713E-05
503.2215,-5.356358E-05
503.3215,-5.352968E-05
503.4215,-5.350237E-05
503.5215,-5.351838E-05
503.6215,-5.349672E-05
503.7215,-5.345811E-05
503.8215,-5.346564E-05
503.9215,-5.342609E-05
504.0215,-5.341008E-05
504.1216,-5.34082E-05
504.2216,-5.339878E-05
504.3216,-5.337618E-05
504.4216,-5.337242E-05
504.5216,-5.334228E-05
504.6216,-5.332627E-05
504.7216,-5.331685E-05
504.8216,-5.330932E-05
504.9216,-5.325187E-05
505.0216,-5.325187E-05
505.1216,-5.324717E-05
505.2216,-5.324717E-05
505.3216,-5.319537E-05
505.4216,-5.321515E-05
505.5216,-5.32029E-05
505.6216,-5.316618E-05
505.7216,-5.314828E-05
505.8217,-5.314546E-05
505.9217,-5.312568E-05
506.0217,-5.310685E-05
506.1217,-5.304752E-05
506.2217,-5.306541E-05
506.3217,-5.308801E-05
506.4217,-5.305882E-05
506.5217,-5.302868E-05
506.6217,-5.297783E-05
506.7217,-5.29816E-05
506.8217,-5.296747E-05
506.9217,-5.294675E-05
507.0217,-5.29411E-05
507.1217,-5.293545E-05
507.2217,-5.287707E-05
507.3217,-5.290155E-05
507.4218,-5.289401E-05
507.5218,-5.2862E-05
507.6218,-5.284128E-05
507.7218,-5.280172E-05
507.8218,-5.276971E-05
507.9218,-5.279607E-05
508.0218,-5.274805E-05
508.1218,-5.272827E-05
508.2218,-5.273581E-05
508.3218,-5.274051E-05
508.4218,-5.268777E-05
508.5218,-5.265858E-05
508.6218,-5.269908E-05
508.7218,-5.270096E-05
508.8218,-5.26567E-05
508.9218,-5.263881E-05
509.0219,-5.263692E-05
509.1219,-5.26115E-05
509.2219,-5.259454E-05
509.3219,-5.258889E-05
509.4219,-5.256818E-05
509.5219,-5.253522E-05
509.6219,-5.254746E-05
509.7219,-5.25371E-05
509.8219,-5.251732E-05
509.9219,-5.24693E-05
510.0219,-5.246741E-05
510.1219,-5.246741E-05
510.2219,-5.243162E-05
510.3219,-5.239301E-05
510.4219,-5.239396E-05
510.5219,-5.238077E-05
510.6219,-5.234216E-05
510.722,-5.232709E-05
510.822,-5.23092E-05
510.922,-5.229696E-05
511.022,-5.226588E-05
511.122,-5.225364E-05
511.222,-5.22122E-05
511.322,-5.220561E-05
511.422,-5.219337E-05
511.522,-5.215758E-05
511.622,-5.214157E-05
511.722,-5.21557E-05
511.822,-5.21218E-05
511.922,-5.20926E-05
512.022,-5.207094E-05
512.122,-5.204269E-05
512.222,-5.205399E-05
512.322,-5.204457E-05
512.4219,-5.201255E-05
512.5219,-5.198336E-05
512.6219,-5.197394E-05
512.7219,-5.196359E-05
512.8218,-5.195699E-05
512.9218,-5.194475E-05
513.0218,-5.192686E-05
513.1218,-5.188919E-05
513.2217,-5.18826E-05
513.3217,-5.187883E-05
513.4217,-5.185905E-05
513.5217,-5.18308E-05
513.6216,-5.182327E-05
513.7216,-5.182044E-05
513.8216,-5.178654E-05
513.9216,-5.1763E-05
514.0215,-5.173192E-05
514.1215,-5.172438E-05
514.2215,-5.172815E-05
514.3215,-5.169802E-05
514.4214,-5.167918E-05
514.5214,-5.165281E-05
514.6214,-5.164528E-05
514.7214,-5.167165E-05
514.8214,-5.162739E-05
514.9213,-5.159254E-05
515.0213,-5.159442E-05
515.1213,-5.160479E-05
515.2213,-5.157089E-05
515.3212,-5.152285E-05
515.4212,-5.157182E-05
515.5212,-5.153886E-05
515.6212,-5.149272E-05
515.7211,-5.150402E-05
515.8211,-5.15059E-05
515.9211,-5.147859E-05
516.0211,-5.14607E-05
516.121,-5.143056E-05
516.221,-5.142209E-05
516.321,-5.144469E-05
516.421,-5.141361E-05
516.5209,-5.138819E-05
516.6209,-5.136653E-05
516.7209,-5.137783E-05
516.8209,-5.136182E-05
516.9208,-5.131567E-05
517.0208,-5.129778E-05
517.1208,-5.128554E-05
517.2208,-5.126388E-05
517.3207,-5.128366E-05
517.4207,-5.123751E-05
517.5207,-5.120832E-05
517.6207,-5.124033E-05
517.7206,-5.121114E-05
517.8206,-5.120266E-05
517.9206,-5.119325E-05
518.0206,-5.118101E-05
518.1205,-5.114145E-05
518.2205,-5.116594E-05
518.3205,-5.116311E-05
518.4205,-5.112168E-05
518.5204,-5.111414E-05
518.6204,-5.110096E-05
518.7204,-5.107177E-05
518.8204,-5.106047E-05
518.9203,-5.101997E-05
519.0203,-5.100301E-05
519.1203,-5.100584E-05
519.2203,-5.097382E-05
519.3203,-5.096347E-05
519.4202,-5.095028E-05
519.5202,-5.095122E-05
519.6202,-5.091826E-05
519.7202,-5.089284E-05
519.8201,-5.088624E-05
519.9201,-5.088624E-05
520.0201,-5.086646E-05
520.1201,-5.084198E-05
520.22,-5.082503E-05
520.32,-5.082503E-05
520.42,-5.083633E-05
520.52,-5.078171E-05
520.6199,-5.076288E-05
520.7199,-5.074216E-05
520.8199,-5.074498E-05
520.9199,-5.071673E-05
521.0198,-5.070826E-05
521.1198,-5.068565E-05
521.2198,-5.070637E-05
521.3198,-5.073086E-05
521.4197,-5.068942E-05
521.5197,-5.067059E-05
521.6197,-5.066588E-05
521.7197,-5.065646E-05
521.8196,-5.065552E-05
521.9196,-5.061974E-05
522.0196,-5.060278E-05
522.1196,-5.054817E-05
522.2195,-5.055193E-05
522.3195,-5.055946E-05
522.4195,-5.050955E-05
522.5195,-5.048883E-05
522.6194,-5.050201E-05
522.7194,-5.053498E-05
522.8194,-5.048412E-05
522.9194,-5.049825E-05
523.0193,-5.05039E-05
523.1193,-5.046717E-05
523.2193,-5.045587E-05
523.3193,-5.045022E-05
523.4193,-5.040031E-05
523.5192,-5.036924E-05
523.6192,-5.03504E-05
523.7192,-5.033533E-05
523.8192,-5.032121E-05
523.9191,-5.030237E-05
524.0191,-5.024398E-05
524.1191,-5.024681E-05
524.2191,-5.025434E-05
524.319,-5.021762E-05
524.419,-5.01856E-05
524.519,-5.019407E-05
524.619,-5.018089E-05
524.7189,-5.016582E-05
524.8189,-5.015734E-05
524.9189,-5.012721E-05
525.0189,-5.011026E-05
525.1188,-5.012815E-05
525.2188,-5.008483E-05
525.3188,-5.005846E-05
525.4188,-5.005846E-05
525.5187,-5.005752E-05
525.6187,-5.001043E-05
525.7187,-4.998783E-05
525.8187,-4.999348E-05
525.9186,-4.997276E-05
526.0186,-4.99803E-05
526.1186,-4.994545E-05
526.2186,-4.990778E-05
526.3185,-4.989837E-05
526.4185,-4.992285E-05
526.5185,-4.989554E-05
526.6185,-4.986917E-05
526.7184,-4.986729E-05
526.8184,-4.981173E-05
526.9184,-4.983339E-05
527.0184,-4.984563E-05
527.1183,-4.97976E-05
527.2183,-4.976558E-05
527.3183,-4.979478E-05
527.4183,-4.977689E-05
527.5182,-4.975428E-05
527.6182,-4.974581E-05
527.7182,-4.975428E-05
527.8182,-4.974769E-05
527.9182,-4.977217E-05
528.0181,-4.973733E-05
528.1181,-4.97232E-05
528.2181,-4.971379E-05
528.3181,-4.969401E-05
528.418,-4.966106E-05
528.518,-4.965823E-05
528.618,-4.965823E-05
528.718,-4.960737E-05
528.8179,-4.958759E-05
528.9179,-4.958759E-05
529.0179,-4.958006E-05
529.1179,-4.955087E-05
529.2178,-4.953109E-05
529.3178,-4.951038E-05
529.4178,-4.950755E-05
529.5178,-4.949625E-05
529.6177,-4.946894E-05
529.7177,-4.943221E-05
529.8177,-4.944539E-05
529.9177,-4.943221E-05
530.0176,-4.941149E-05
530.1176,-4.940113E-05
530.2176,-4.936252E-05
530.3176,-4.935405E-05
530.4175,-4.937006E-05
530.5175,-4.932014E-05
530.6175,-4.930508E-05
530.7175,-4.933145E-05
530.8174,-4.930884E-05
530.9174,-4.928342E-05
531.0174,-4.926552E-05
531.1174,-4.92627E-05
531.2173,-4.923445E-05
531.3173,-4.922126E-05
531.4173,-4.92222E-05
531.5173,-4.92062E-05
531.6172,-4.918454E-05
531.7172,-4.919395E-05
531.8172,-4.918548E-05
531.9172,-4.91544E-05
532.0172,-4.913933E-05
532.1171,-4.911768E-05
532.2171,-4.912332E-05
532.3171,-4.913839E-05
532.4171,-4.908565E-05
532.517,-4.906776E-05
532.617,-4.906211E-05
532.717,-4.904987E-05
532.817,-4.901032E-05
532.9169,-4.900655E-05
533.0169,-4.899524E-05
533.1169,-4.896982E-05
533.2169,-4.897359E-05
533.3168,-4.897264E-05
533.4168,-4.891332E-05
533.5168,-4.889731E-05
533.6168,-4.89378E-05
533.7167,-4.894251E-05
533.8167,-4.887376E-05
533.9167,-4.88926E-05
534.0167,-4.888601E-05
534.1166,-4.886717E-05
534.2166,-4.88408E-05
534.3166,-4.883986E-05
534.4166,-4.880878E-05
534.5165,-4.880878E-05
534.6165,-4.880125E-05
534.7165,-4.881443E-05
534.8165,-4.875793E-05
534.9164,-4.875322E-05
535.0164,-4.875605E-05
535.1164,-4.87617E-05
535.2164,-4.873815E-05
535.3163,-4.870896E-05
535.4163,-4.871838E-05
535.5163,-4.870614E-05
535.6163,-4.866941E-05
535.7162,-4.867977E-05
535.8162,-4.866564E-05
535.9162,-4.864022E-05
536.0162,-4.861949E-05
536.1161,-4.862044E-05
536.2161,-4.86082E-05
536.3161,-4.859501E-05
536.4161,-4.858465E-05
536.5161,-4.853945E-05
536.616,-4.855075E-05
536.716,-4.855452E-05
536.816,-4.849613E-05
536.916,-4.847447E-05
537.0159,-4.851402E-05
537.1159,-4.852155E-05
537.2159,-4.84481E-05
537.3159,-4.847918E-05
537.4158,-4.847918E-05
537.5158,-4.846034E-05
537.6158,-4.844339E-05
537.7158,-4.844998E-05
537.8157,-4.841043E-05
537.9157,-4.840572E-05
538.0157,-4.843115E-05
538.1157,-4.837559E-05
538.2156,-4.835581E-05
538.3156,-4.835016E-05
538.4156,-4.832191E-05
538.5156,-4.830119E-05
538.6155,-4.829742E-05
538.7155,-4.828424E-05
538.8155,-4.82607E-05
538.9155,-4.827294E-05
539.0154,-4.823809E-05
539.1154,-4.822585E-05
539.2154,-4.822962E-05
539.3154,-4.819854E-05
539.4153,-4.817783E-05
539.5153,-4.814863E-05
539.6153,-4.815899E-05
539.7153,-4.814486E-05
539.8152,-4.815145E-05
539.9152,-4.811379E-05
540.0152,-4.805258E-05
540.1152,-4.811284E-05
540.2151,-4.8078E-05
540.3151,-4.806105E-05
540.4151,-4.805916E-05
540.5151,-4.805352E-05
540.6151,-4.800455E-05
540.715,-4.801114E-05
540.815,-4.798759E-05
540.915,-4.799795E-05
541.015,-4.797347E-05
541.1149,-4.797347E-05
541.2149,-4.794521E-05
541.3149,-4.79471E-05
541.4149,-4.796688E-05
541.5148,-4.791226E-05
541.6148,-4.788495E-05
541.7148,-4.791414E-05
541.8148,-4.788965E-05
541.9147,-4.785669E-05
542.0147,-4.786894E-05
542.1147,-4.786517E-05
542.2147,-4.783315E-05
542.3146,-4.784069E-05
542.4146,-4.782373E-05
542.5146,-4.778512E-05
542.6146,-4.776818E-05
542.7145,-4.777853E-05
542.8145,-4.773803E-05
542.9145,-4.774463E-05
543.0145,-4.772768E-05
543.1144,-4.768342E-05
543.2144,-4.768624E-05
543.3144,-4.768812E-05
543.4144,-4.767117E-05
543.5143,-4.764763E-05
543.6143,-4.765045E-05
543.7143,-4.762879E-05
543.8143,-4.762974E-05
543.9142,-4.760243E-05
544.0142,-4.757794E-05
544.1142,-4.76335E-05
544.2142,-4.761655E-05
544.3141,-4.75591E-05
544.4141,-4.754404E-05
544.5141,-4.756664E-05
544.6141,-4.75431E-05
544.7141,-4.751014E-05
544.814,-4.749224E-05
544.914,-4.750354E-05
545.014,-4.747718E-05
545.114,-4.748471E-05
545.2139,-4.745834E-05
545.3139,-4.742538E-05
545.4139,-4.744798E-05
545.5139,-4.742632E-05
545.6138,-4.740561E-05
545.7138,-4.739054E-05
545.8138,-4.741785E-05
545.9138,-4.739524E-05
546.0137,-4.734628E-05
546.1137,-4.735757E-05
546.2137,-4.73265E-05
546.3137,-4.732462E-05
546.4136,-4.732179E-05
546.5136,-4.727094E-05
546.6136,-4.725493E-05
546.7136,-4.727471E-05
546.8135,-4.727282E-05
546.9135,-4.725304E-05
547.0135,-4.721631E-05
547.1135,-4.722668E-05
547.2134,-4.718618E-05
547.3134,-4.719937E-05
547.4134,-4.718901E-05
547.5134,-4.714757E-05
547.6133,-4.714004E-05
547.7133,-4.713627E-05
547.8133,-4.713721E-05
547.9133,-4.711744E-05
548.0132,-4.709106E-05
548.1132,-4.706941E-05
548.2132,-4.706281E-05
548.3132,-4.706846E-05
548.4131,-4.705152E-05
548.5131,-4.703739E-05
548.6131,-4.702609E-05
548.7131,-4.699124E-05
548.813,-4.699595E-05
548.913,-4.700537E-05
549.013,-4.697523E-05
549.113,-4.695546E-05
549.213,-4.696299E-05
549.3129,-4.694321E-05
549.4129,-4.693945E-05
549.5129,-4.69338E-05
549.6129,-4.691026E-05
549.7128,-4.690272E-05
549.8128,-4.692721E-05
549.9128,-4.687823E-05
550.0128,-4.685375E-05
550.1127,-4.688389E-05
550.2127,-4.686788E-05
550.3127,-4.683397E-05
550.4127,-4.682926E-05
550.5126,-4.683491E-05
550.6126,-4.683209E-05
550.7126,-4.68076E-05
550.8126,-4.677465E-05
550.9125,-4.677841E-05
551.0125,-4.678688E-05
551.1125,-4.676146E-05
551.2125,-4.67398E-05
551.3124,-4.673791E-05
551.4124,-4.672473E-05
551.5124,-4.671249E-05
551.6124,-4.670402E-05
551.7123,-4.670872E-05
551.8123,-4.666352E-05
551.9123,-4.667106E-05
552.0123,-4.667765E-05
552.1122,-4.665128E-05
552.2122,-4.662397E-05
552.3122,-4.663903E-05
552.4122,-4.662679E-05
552.5121,-4.659101E-05
552.6121,-4.660796E-05
552.7121,-4.66089E-05
552.8121,-4.656464E-05
552.912,-4.655428E-05
553.012,-4.65411E-05
553.112,-4.653262E-05
553.212,-4.655051E-05
553.312,-4.656558E-05
553.4119,-4.653168E-05
553.5119,-4.651378E-05
553.6119,-4.65185E-05
553.7119,-4.650343E-05
553.8118,-4.64554E-05
553.9118,-4.644787E-05
554.0118,-4.645446E-05
554.1118,-4.642244E-05
554.2117,-4.638288E-05
554.3117,-4.637818E-05
554.4117,-4.637158E-05
554.5117,-4.638571E-05
554.6116,-4.633957E-05
554.7116,-4.631414E-05
554.8116,-4.631979E-05
554.9116,-4.632261E-05
555.0115,-4.630095E-05
555.1115,-4.628023E-05
555.2115,-4.626517E-05
555.3115,-4.623315E-05
555.4114,-4.6268E-05
555.5114,-4.623692E-05
555.6114,-4.620772E-05
555.7114,-4.619642E-05
555.8113,-4.619454E-05
555.9113,-4.617759E-05
556.0113,-4.61757E-05
556.1113,-4.613615E-05
556.2112,-4.611543E-05
556.3112,-4.611638E-05
556.4112,-4.613426E-05
556.5112,-4.609283E-05
556.6111,-4.609848E-05
556.7111,-4.60853E-05
556.8111,-4.605987E-05
556.9111,-4.607211E-05
557.011,-4.605799E-05
557.111,-4.602973E-05
557.211,-4.600901E-05
557.311,-4.603068E-05
557.4109,-4.600337E-05
557.5109,-4.601373E-05
557.6109,-4.598453E-05
557.7109,-4.59591E-05
557.8109,-4.596475E-05
557.9108,-4.596947E-05
558.0108,-4.595063E-05
558.1108,-4.591767E-05
558.2108,-4.592144E-05
558.3107,-4.591202E-05
558.4107,-4.590166E-05
558.5107,-4.589224E-05
558.6107,-4.58508E-05
558.7106,-4.585646E-05
558.8106,-4.587153E-05
558.9106,-4.585834E-05
559.0106,-4.583009E-05
559.1105,-4.581596E-05
559.2105,-4.581408E-05
559.3105,-4.579148E-05
559.4105,-4.579524E-05
559.5104,-4.579901E-05
559.6104,-4.5783E-05
559.7104,-4.576888E-05
559.8104,-4.572367E-05
559.9103,-4.572085E-05
560.0103,-4.574062E-05
560.1103,-4.573026E-05
560.2103,-4.568694E-05
560.3102,-4.56813E-05
560.4102,-4.569542E-05
560.5102,-4.567282E-05
560.6102,-4.56521E-05
560.7101,-4.56408E-05
560.8101,-4.563421E-05
560.9101,-4.56408E-05
561.0101,-4.560784E-05
561.11,-4.557582E-05
561.21,-4.563327E-05
561.31,-4.560313E-05
561.41,-4.557205E-05
561.5099,-4.55777E-05
561.6099,-4.557582E-05
561.7099,-4.555228E-05
561.8099,-4.555699E-05
561.9099,-4.552685E-05
562.0098,-4.551084E-05
562.1098,-4.550707E-05
562.2098,-4.551932E-05
562.3098,-4.548071E-05
562.4097,-4.548071E-05
562.5097,-4.547317E-05
562.6097,-4.543456E-05
562.7097,-4.543456E-05
562.8096,-4.544586E-05
562.9096,-4.541478E-05
563.0096,-4.539877E-05
563.1096,-4.539407E-05
563.2095,-4.537335E-05
563.3095,-4.537052E-05
563.4095,-4.536487E-05
563.5095,-4.537806E-05
563.6094,-4.535451E-05
563.7094,-4.534604E-05
563.8094,-4.535828E-05
563.9094,-4.532438E-05
564.0093,-4.532344E-05
564.1093,-4.530931E-05
564.2093,-4.528859E-05
564.3093,-4.526128E-05
564.4092,-4.530272E-05
564.5092,-4.531873E-05
564.6092,-4.527258E-05
564.7092,-4.526316E-05
564.8091,-4.524904E-05
564.9091,-4.523868E-05
565.0091,-4.52594E-05
565.1091,-4.52076E-05
565.209,-4.51624E-05
565.309,-4.5169E-05
565.409,-4.516805E-05
565.509,-4.514545E-05
565.6089,-4.517841E-05
565.7089,-4.514074E-05
565.8089,-4.510778E-05
565.9089,-4.509931E-05
566.0089,-4.509931E-05
566.1088,-4.509648E-05
566.2088,-4.50767E-05
566.3088,-4.508235E-05
566.4088,-4.507858E-05
566.5087,-4.503715E-05
566.6087,-4.505127E-05
566.7087,-4.502868E-05
566.8087,-4.49976E-05
566.9086,-4.500042E-05
567.0086,-4.498441E-05
567.1086,-4.497782E-05
567.2086,-4.492979E-05
567.3085,-4.494581E-05
567.4085,-4.494392E-05
567.5085,-4.494109E-05
567.6085,-4.489965E-05
567.7084,-4.491002E-05
567.8084,-4.489212E-05
567.9084,-4.487988E-05
568.0084,-4.486764E-05
568.1083,-4.484974E-05
568.2083,-4.486387E-05
568.3083,-4.482997E-05
568.4083,-4.482997E-05
568.5082,-4.480925E-05
568.6082,-4.479324E-05
568.7082,-4.479136E-05
568.8082,-4.478759E-05
568.9081,-4.478194E-05
569.0081,-4.475086E-05
569.1081,-4.475369E-05
569.2081,-4.474427E-05
569.308,-4.472732E-05
569.408,-4.472355E-05
569.508,-4.469154E-05
569.608,-4.467364E-05
569.7079,-4.470849E-05
569.8079,-4.471696E-05
569.9079,-4.465575E-05
570.0079,-4.465481E-05
570.1078,-4.464821E-05
570.2078,-4.463974E-05
570.3078,-4.466799E-05
570.4078,-4.46275E-05
570.5078,-4.458983E-05
570.6077,-4.460019E-05
570.7077,-4.461525E-05
570.8077,-4.457193E-05
570.9077,-4.456629E-05
571.0076,-4.460113E-05
571.1076,-4.460301E-05
571.2076,-4.456346E-05
571.3076,-4.456063E-05
571.4075,-4.455028E-05
571.5075,-4.455028E-05
571.6075,-4.453426E-05
571.7075,-4.452767E-05
571.8074,-4.452673E-05
571.9074,-4.449095E-05
572.0074,-4.449E-05
572.1074,-4.449283E-05
572.2073,-4.448059E-05
572.3073,-4.4474E-05
572.4073,-4.445799E-05
572.5073,-4.445045E-05
572.6072,-4.443726E-05
572.7072,-4.43996E-05
572.8072,-4.442503E-05
572.9072,-4.442597E-05
573.0071,-4.438076E-05
573.1071,-4.438171E-05
573.2071,-4.439678E-05
573.3071,-4.437229E-05
573.407,-4.434686E-05
573.507,-4.43544E-05
573.607,-4.432615E-05
573.707,-4.435063E-05
573.8069,-4.431484E-05
573.9069,-4.430166E-05
574.0069,-4.430166E-05
574.1069,-4.430637E-05
574.2068,-4.427246E-05
574.3068,-4.429318E-05
574.4068,-4.426681E-05
574.5068,-4.422538E-05
574.6068,-4.423385E-05
574.7067,-4.424892E-05
574.8067,-4.425363E-05
574.9067,-4.422443E-05
575.0067,-4.424421E-05
575.1066,-4.421502E-05
575.2066,-4.418771E-05
575.3066,-4.421878E-05
575.4066,-4.418394E-05
575.5065,-4.415381E-05
575.6065,-4.417264E-05
575.7065,-4.416793E-05
575.8065,-4.413121E-05
575.9064,-4.414156E-05
576.0064,-4.413685E-05
576.1064,-4.412085E-05
576.2064,-4.413403E-05
576.3063,-4.41039E-05
576.4063,-4.410672E-05
576.5063,-4.409259E-05
576.6063,-4.410484E-05
576.7062,-4.407753E-05
576.8062,-4.406058E-05
576.9062,-4.408223E-05
577.0062,-4.407282E-05
577.1061,-4.402385E-05
577.2061,-4.404362E-05
577.3061,-4.402385E-05
577.4061,-4.3973E-05
577.506,-4.400219E-05
577.606,-4.401349E-05
577.706,-4.398335E-05
577.806,-4.394663E-05
577.9059,-4.39777E-05
578.0059,-4.397017E-05
578.1059,-4.395133E-05
578.2059,-4.390801E-05
578.3058,-4.392873E-05
578.4058,-4.391272E-05
578.5058,-4.390425E-05
578.6058,-4.387882E-05
578.7057,-4.386093E-05
578.8057,-4.385528E-05
578.9057,-4.384115E-05
579.0057,-4.382326E-05
579.1057,-4.38242E-05
579.2056,-4.379595E-05
579.3056,-4.380725E-05
579.4056,-4.381667E-05
579.5056,-4.378747E-05
579.6055,-4.374886E-05
579.7055,-4.375074E-05
579.8055,-4.375357E-05
579.9055,-4.374039E-05
580.0054,-4.374321E-05
580.1054,-4.370742E-05
580.2054,-4.368388E-05
580.3054,-4.370178E-05
580.4053,-4.370648E-05
580.5053,-4.367635E-05
580.6053,-4.366034E-05
580.7053,-4.363209E-05
580.8052,-4.364056E-05
580.9052,-4.366316E-05
581.0052,-4.364056E-05
581.1052,-4.360101E-05
581.2051,-4.359724E-05
581.3051,-4.361325E-05
581.4051,-4.357841E-05
581.5051,-4.357935E-05
581.605,-4.357746E-05
581.705,-4.355204E-05
581.805,-4.356428E-05
581.905,-4.353885E-05
582.0049,-4.353697E-05
582.1049,-4.352662E-05
582.2049,-4.353509E-05
582.3049,-4.350684E-05
582.4048,-4.348235E-05
582.5048,-4.352284E-05
582.6048,-4.348424E-05
582.7048,-4.345975E-05
582.8047,-4.348141E-05
582.9047,-4.347294E-05
583.0047,-4.34315E-05
583.1047,-4.344374E-05
583.2047,-4.342961E-05
583.3046,-4.344092E-05
583.4046,-4.345316E-05
583.5046,-4.342867E-05
583.6046,-4.339289E-05
583.7045,-4.338912E-05
583.8045,-4.339194E-05
583.9045,-4.339289E-05
584.0045,-4.335334E-05
584.1044,-4.335239E-05
584.2044,-4.332602E-05
584.3044,-4.331661E-05
584.4044,-4.333544E-05
584.5043,-4.329683E-05
584.6043,-4.327893E-05
584.7043,-4.332979E-05
584.8043,-4.33458E-05
584.9042,-4.328741E-05
585.0042,-4.331378E-05
585.1042,-4.332037E-05
585.2042,-4.329871E-05
585.3041,-4.328741E-05
585.4041,-4.330154E-05
585.5041,-4.326105E-05
585.6041,-4.322997E-05
585.704,-4.323468E-05
585.804,-4.32262E-05
585.904,-4.322432E-05
586.004,-4.318759E-05
586.1039,-4.316122E-05
586.2039,-4.319136E-05
586.3039,-4.318006E-05
586.4039,-4.313015E-05
586.5038,-4.315651E-05
586.6038,-4.317629E-05
586.7038,-4.31405E-05
586.8038,-4.312638E-05
586.9037,-4.311602E-05
587.0037,-4.310849E-05
587.1037,-4.307647E-05
587.2037,-4.307176E-05
587.3036,-4.306046E-05
587.4036,-4.305386E-05
587.5036,-4.303126E-05
587.6036,-4.303597E-05
587.7036,-4.30275E-05
587.8035,-4.30209E-05
587.9035,-4.301243E-05
588.0035,-4.296157E-05
588.1035,-4.296723E-05
588.2034,-4.29644E-05
588.3034,-4.294933E-05
588.4034,-4.295404E-05
588.5034,-4.293709E-05
588.6033,-4.29079E-05
588.7033,-4.292202E-05
588.8033,-4.293521E-05
588.9033,-4.288623E-05
589.0032,-4.287305E-05
589.1032,-4.288341E-05
589.2032,-4.285893E-05
589.3032,-4.287964E-05
589.4031,-4.287399E-05
589.5031,-4.283162E-05
589.6031,-4.282691E-05
589.7031,-4.284009E-05
589.803,-4.281749E-05
589.903,-4.278265E-05
590.003,-4.278924E-05
590.103,-4.279206E-05
590.2029,-4.279489E-05
590.3029,-4.279489E-05
590.4029,-4.278076E-05
590.5029,-4.274309E-05
590.6028,-4.274592E-05
590.7028,-4.275816E-05
590.8028,-4.271955E-05
590.9028,-4.27073E-05
591.0027,-4.26913E-05
591.1027,-4.26913E-05
591.2027,-4.268377E-05
591.3027,-4.268659E-05
591.4026,-4.265834E-05
591.5026,-4.26687E-05
591.6026,-4.264139E-05
591.7026,-4.264044E-05
591.8026,-4.263385E-05
591.9025,-4.260089E-05
592.0025,-4.260089E-05
592.1025,-4.261031E-05
592.2025,-4.260278E-05
592.3024,-4.257264E-05
592.4024,-4.255381E-05
592.5024,-4.256981E-05
592.6024,-4.255569E-05
592.7023,-4.25604E-05
592.8023,-4.253685E-05
592.9023,-4.251237E-05
593.0023,-4.251802E-05
593.1022,-4.252273E-05
593.2022,-4.250107E-05
593.3022,-4.2486E-05
593.4022,-4.2486E-05
593.5021,-4.24634E-05
593.6021,-4.246528E-05
593.7021,-4.248412E-05
593.8021,-4.244645E-05
593.902,-4.243797E-05
594.002,-4.244739E-05
594.102,-4.242008E-05
594.202,-4.240407E-05
594.3019,-4.240784E-05
594.4019,-4.241066E-05
594.5019,-4.238806E-05
594.6019,-4.240784E-05
594.7018,-4.239183E-05
594.8018,-4.238712E-05
594.9018,-4.238994E-05
595.0018,-4.238053E-05
595.1017,-4.235133E-05
595.2017,-4.234851E-05
595.3017,-4.235321E-05
595.4017,-4.235228E-05
595.5016,-4.232779E-05
595.6016,-4.233815E-05
595.7016,-4.232685E-05
595.8016,-4.229671E-05
595.9016,-4.229483E-05
596.0015,-4.229389E-05
596.1015,-4.22581E-05
596.2015,-4.22581E-05
596.3015,-4.226658E-05
596.4014,-4.224115E-05
596.5014,-4.223173E-05
596.6014,-4.224397E-05
596.7014,-4.221007E-05
596.8013,-4.220631E-05
596.9013,-4.220631E-05
597.0013,-4.218276E-05
597.1013,-4.219595E-05
597.2012,-4.217711E-05
597.3012,-4.215639E-05
597.4012,-4.213662E-05
597.5012,-4.215074E-05
597.6011,-4.211778E-05
597.7011,-4.211778E-05
597.8011,-4.213285E-05
597.9011,-4.209895E-05
598.001,-4.210083E-05
598.101,-4.208388E-05
598.201,-4.2082E-05
598.301,-4.208953E-05
598.4009,-4.208765E-05
598.5009,-4.207352E-05
598.6009,-4.206693E-05
598.7009,-4.209047E-05
598.8008,-4.205751E-05
598.9008,-4.202738E-05
599.0008,-4.207164E-05
599.1008,-4.203868E-05
599.2007,-4.197558E-05
599.3007,-4.201608E-05
599.4007,-4.201702E-05
599.5007,-4.199724E-05
599.6006,-4.195957E-05
599.7006,-4.199912E-05
599.8006,-4.19784E-05
599.9006,-4.19784E-05
600.0005,-4.19737E-05
