EXPID. 1221
[电化学]: i-t : @ 0(V) X 600(sec)
起始电位 (V),0
静置时间 (秒),0
运行时间 (秒),600
记录间隔,0.1
电解液 信息:
HNO3,0.4
0.1,-0.01005814
0.2,-0.01005814
0.3,-0.01005814
0.4,-0.01005814
0.5,-0.01005814
0.6,-0.01005814
0.7,-0.01005814
0.8000001,-0.01005814
0.9000001,-0.01005814
1,-0.01005814
1.1,-0.0070436
1.2,-0.006181925
1.3,-0.005617428
1.4,-0.0054148
1.5,-0.006140566
1.6,-0.006369832
1.7,-0.006188707
1.8,-0.005989667
1.9,-0.005963917
2,-0.006088358
2.1,-0.006277513
2.2,-0.006482832
2.3,-0.006650987
2.4,-0.006768459
2.5,-0.006851851
2.6,-0.00690025
2.7,-0.006920728
2.799999,-0.006928257
2.899999,-0.006919013
2.999999,-0.006902153
3.099999,-0.006877576
3.199999,-0.006845368
3.299999,-0.006811925
3.399999,-0.00676872
3.499999,-0.006731742
3.599999,-0.006694201
3.699999,-0.006643114
3.799999,-0.00659973
3.899998,-0.006554618
3.999998,-0.006502459
4.099998,-0.006457753
4.199998,-0.006410121
4.299998,-0.006357477
4.399998,-0.006308641
4.499998,-0.006263051
4.599998,-0.006208389
4.699998,-0.006159178
4.799998,-0.006110809
4.899998,-0.006057659
4.999998,-0.006009089
5.099998,-0.005958828
5.199997,-0.005905788
5.299997,-0.00585537
5.399997,-0.005806257
5.499997,-0.005753912
5.599997,-0.00570567
5.699997,-0.005656857
5.799997,-0.00560812
5.899997,-0.00556108
5.999997,-0.00551387
6.099997,-0.005470078
6.199996,-0.005425113
6.299996,-0.005381595
6.399996,-0.00533955
6.499996,-0.005296822
6.599996,-0.005255805
6.699996,-0.005216422
6.799996,-0.005176606
6.899996,-0.005137624
6.999996,-0.005100802
7.099996,-0.005063347
7.199996,-0.005027137
7.299995,-0.004991573
7.399995,-0.004955819
7.499995,-0.004921978
7.599995,-0.004888551
7.699995,-0.004854365
7.799995,-0.004823304
7.899995,-0.004790618
7.999995,-0.00475881
8.099995,-0.004729051
8.199995,-0.004699138
8.299995,-0.004669731
8.399996,-0.004640267
8.499996,-0.004611478
8.599997,-0.004583946
8.699997,-0.004555683
8.799997,-0.004528508
8.899998,-0.004501665
8.999998,-0.004475951
9.099998,-0.004450766
9.199999,-0.004425609
9.299999,-0.004399856
9.4,-0.004375225
9.5,-0.004350981
9.6,-0.004326358
9.700001,-0.004302389
9.800001,-0.004278779
9.900002,-0.00425501
10,-0.00423211
10.1,-0.004209321
10.2,-0.004186576
10.3,-0.004164292
10.4,-0.004142355
10.5,-0.004120488
10.6,-0.004098657
10.7,-0.004077623
10.8,-0.004056772
10.90001,-0.00403567
11.00001,-0.004015
11.10001,-0.003994731
11.20001,-0.003974514
11.30001,-0.003954757
11.40001,-0.00393572
11.50001,-0.003915691
11.60001,-0.003897166
11.70001,-0.003877903
11.80001,-0.003858728
11.90001,-0.00384027
12.00001,-0.003821656
12.10001,-0.003803054
12.20001,-0.003785003
12.30001,-0.003766706
12.40001,-0.003748641
12.50001,-0.003731087
12.60001,-0.003713229
12.70001,-0.003695874
12.80001,-0.003678925
12.90001,-0.003661475
13.00001,-0.003644538
13.10001,-0.003627662
13.20001,-0.003611652
13.30001,-0.003595782
13.40001,-0.003578804
13.50002,-0.003562565
13.60002,-0.003546986
13.70002,-0.00353038
13.80002,-0.003514528
13.90002,-0.003499128
14.00002,-0.003482891
14.10002,-0.003467124
14.20002,-0.003452084
14.30002,-0.003436203
14.40002,-0.003421152
14.50002,-0.003406314
14.60002,-0.003390884
14.70002,-0.003376127
14.80002,-0.003361531
14.90002,-0.003346523
15.00002,-0.00333219
15.10002,-0.003317697
15.20002,-0.003303249
15.30002,-0.003289066
15.40002,-0.003274912
15.50002,-0.003261243
15.60002,-0.003247389
15.70002,-0.003233535
15.80002,-0.003219875
15.90002,-0.003206394
16.00002,-0.00319255
16.10003,-0.003179423
16.20003,-0.003166087
16.30003,-0.003152565
16.40003,-0.003139751
16.50003,-0.003126645
16.60003,-0.003113502
16.70003,-0.003101131
16.80003,-0.003088108
16.90003,-0.003075228
17.00003,-0.003062876
17.10003,-0.0030501
17.20003,-0.003037644
17.30003,-0.003025643
17.40003,-0.003013156
17.50003,-0.003000891
17.60003,-0.002989017
17.70003,-0.002976728
17.80003,-0.002964892
17.90003,-0.002952955
18.00003,-0.002941356
18.10003,-0.002929874
18.20003,-0.002918259
18.30003,-0.002906255
18.40003,-0.002895272
18.50003,-0.002884079
18.60003,-0.002872317
18.70004,-0.002861473
18.80004,-0.002850299
18.90004,-0.00283901
19.00004,-0.002828158
19.10004,-0.002817184
19.20004,-0.002806199
19.30004,-0.002795566
19.40004,-0.002784842
19.50004,-0.002774118
19.60004,-0.002763753
19.70004,-0.002753358
19.80004,-0.002742819
19.90004,-0.002732692
20.00004,-0.00272249
20.10004,-0.002712118
20.20004,-0.00270192
20.30004,-0.002692142
20.40004,-0.002681929
20.50004,-0.002671611
20.60004,-0.002661771
20.70004,-0.002651933
20.80004,-0.002641914
20.90004,-0.002632529
21.00004,-0.002622957
21.10004,-0.002613483
21.20004,-0.0026037
21.30005,-0.002594177
21.40005,-0.002584715
21.50005,-0.00257554
21.60005,-0.002566183
21.70005,-0.002557002
21.80005,-0.002547796
21.90005,-0.002538625
22.00005,-0.002529602
22.10005,-0.0025205
22.20005,-0.002511382
22.30005,-0.002502672
22.40005,-0.002493612
22.50005,-0.002484846
22.60005,-0.002476112
22.70005,-0.002467212
22.80005,-0.002458639
22.90005,-0.002449824
23.00005,-0.002441082
23.10005,-0.002432677
23.20005,-0.002424282
23.30005,-0.002415563
23.40005,-0.002407453
23.50005,-0.002399116
23.60005,-0.002390743
23.70005,-0.002382589
23.80005,-0.002374434
23.90005,-0.002366119
24.00006,-0.002358091
24.10006,-0.002349946
24.20006,-0.002341935
24.30006,-0.002333928
24.40006,-0.002325949
24.50006,-0.002318105
24.60006,-0.002310292
24.70006,-0.002302738
24.80006,-0.00229478
24.90006,-0.002287023
25.00006,-0.002279455
25.10006,-0.002271942
25.20006,-0.002264287
25.30006,-0.002256935
25.40006,-0.002249472
25.50006,-0.002241875
25.60006,-0.002234543
25.70006,-0.002227356
25.80006,-0.002220009
25.90006,-0.002212789
26.00006,-0.002205501
26.10006,-0.002198474
26.20006,-0.002191279
26.30006,-0.002184107
26.40006,-0.002177001
26.50006,-0.002170009
26.60007,-0.002162968
26.70007,-0.002155965
26.80007,-0.002149313
26.90007,-0.002142177
27.00007,-0.002135522
27.10007,-0.002128785
27.20007,-0.002121982
27.30007,-0.002115442
27.40007,-0.002108814
27.50007,-0.002102121
27.60007,-0.002095528
27.70007,-0.002089163
27.80007,-0.002082634
27.90007,-0.002076173
28.00007,-0.002069816
28.10007,-0.00206349
28.20007,-0.002056948
28.30007,-0.002050571
28.40007,-0.002044271
28.50007,-0.002037851
28.60007,-0.002031744
28.70007,-0.002025499
28.80007,-0.002019291
28.90007,-0.002013251
29.00007,-0.002007183
29.10007,-0.002001249
29.20008,-0.001995193
29.30008,-0.001989104
29.40008,-0.001983358
29.50008,-0.001977364
29.60008,-0.001971158
29.70008,-0.001965364
29.80008,-0.001959374
29.90008,-0.001953461
30.00008,-0.001947712
30.10008,-0.001941989
30.20008,-0.001935881
30.30008,-0.001930266
30.40008,-0.001924624
30.50008,-0.001918766
30.60008,-0.00191327
30.70008,-0.001907605
30.80008,-0.001901913
30.90008,-0.001896378
31.00008,-0.001890745
31.10008,-0.001885223
31.20008,-0.001879698
31.30008,-0.0018743
31.40008,-0.00186887
31.50008,-0.001863455
31.60008,-0.001858124
31.70008,-0.001852899
31.80009,-0.001847563
31.90009,-0.001842155
32.00008,-0.001837083
32.10008,-0.001831846
32.20008,-0.001826623
32.30008,-0.001821708
32.40008,-0.00181631
32.50008,-0.001811221
32.60007,-0.001806215
32.70007,-0.001801203
32.80007,-0.001796138
32.90007,-0.00179111
33.00007,-0.001786111
33.10007,-0.001781162
33.20007,-0.001776218
33.30006,-0.001771239
33.40006,-0.001766411
33.50006,-0.001761465
33.60006,-0.001756577
33.70006,-0.001751982
33.80006,-0.001746967
33.90005,-0.001742337
34.00005,-0.001737526
34.10005,-0.001732806
34.20005,-0.001728166
34.30005,-0.001723478
34.40005,-0.00171879
34.50005,-0.001714136
34.60004,-0.001709603
34.70004,-0.001705174
34.80004,-0.001700471
34.90004,-0.00169607
35.00004,-0.001691735
35.10004,-0.001687212
35.20004,-0.001682689
35.30003,-0.001678278
35.40003,-0.001673974
35.50003,-0.001669623
35.60003,-0.001665236
35.70003,-0.001660854
35.80003,-0.001656623
35.90002,-0.001652131
36.00002,-0.001647905
36.10002,-0.001643739
36.20002,-0.001639378
36.30002,-0.001635172
36.40002,-0.001631096
36.50002,-0.001626845
36.60001,-0.001622668
36.70001,-0.001618607
36.80001,-0.001614286
36.90001,-0.001610228
37.00001,-0.001606238
37.10001,-0.001602025
37.2,-0.001598001
37.3,-0.00159412
37.4,-0.001590023
37.5,-0.001586109
37.6,-0.001582066
37.7,-0.001577977
37.8,-0.001574044
37.89999,-0.001570139
37.99999,-0.001566217
38.09999,-0.001562417
38.19999,-0.00155866
38.29999,-0.001554794
38.39999,-0.001550925
38.49998,-0.001547139
38.59998,-0.001543398
38.69998,-0.001539504
38.79998,-0.00153591
38.89998,-0.001532243
38.99998,-0.001528487
39.09998,-0.001524778
39.19997,-0.00152122
39.29997,-0.00151749
39.39997,-0.001514011
39.49997,-0.001510404
39.59997,-0.001506665
39.69997,-0.001503132
39.79996,-0.001499481
39.89996,-0.001495803
39.99996,-0.001492348
40.09996,-0.001488736
40.19996,-0.001485088
40.29996,-0.001481727
40.39996,-0.001478164
40.49995,-0.001474572
40.59995,-0.001471159
40.69995,-0.001467761
40.79995,-0.001464238
40.89995,-0.001460897
40.99995,-0.001457462
41.09995,-0.001453961
41.19994,-0.001450719
41.29994,-0.001447346
41.39994,-0.001443969
41.49994,-0.001440723
41.59994,-0.001437455
41.69994,-0.00143418
41.79993,-0.001430925
41.89993,-0.00142768
41.99993,-0.001424394
42.09993,-0.001421138
42.19993,-0.001417879
42.29993,-0.001414637
42.39993,-0.001411513
42.49992,-0.001408449
42.59992,-0.001405123
42.69992,-0.001401952
42.79992,-0.0013989
42.89992,-0.001395687
42.99992,-0.001392592
43.09991,-0.001389577
43.19991,-0.001386459
43.29991,-0.00138334
43.39991,-0.001380376
43.49991,-0.00137732
43.59991,-0.001374228
43.69991,-0.001371257
43.7999,-0.001368177
43.8999,-0.001365158
43.9999,-0.001362234
44.0999,-0.001359217
44.1999,-0.00135625
44.2999,-0.001353342
44.39989,-0.001350345
44.49989,-0.001347449
44.59989,-0.001344514
44.69989,-0.001341564
44.79989,-0.001338689
44.89989,-0.001335736
44.99989,-0.001332908
45.09988,-0.001330114
45.19988,-0.001327178
45.29988,-0.001324467
45.39988,-0.001321753
45.49988,-0.001318786
45.59988,-0.001316137
45.69987,-0.001313475
45.79987,-0.001310518
45.89987,-0.00130783
45.99987,-0.001305097
46.09987,-0.001302236
46.19987,-0.001299588
46.29987,-0.001296832
46.39986,-0.001294092
46.49986,-0.001291433
46.59986,-0.001288821
46.69986,-0.001286048
46.79986,-0.001283411
46.89986,-0.001280775
46.99986,-0.00127807
47.09985,-0.001275478
47.19985,-0.00127282
47.29985,-0.001270227
47.39985,-0.001267572
47.49985,-0.001264905
47.59985,-0.001262387
47.69984,-0.001259766
47.79984,-0.001257185
47.89984,-0.001254663
47.99984,-0.001252107
48.09984,-0.001249572
48.19984,-0.001247066
48.29984,-0.001244567
48.39983,-0.001242083
48.49983,-0.001239601
48.59983,-0.001237032
48.69983,-0.001234628
48.79983,-0.001232161
48.89983,-0.001229777
48.99982,-0.001227356
49.09982,-0.001224931
49.19982,-0.001222595
49.29982,-0.001220273
49.39982,-0.001217858
49.49982,-0.001215468
49.59982,-0.001213181
49.69981,-0.00121073
49.79981,-0.001208364
49.89981,-0.001206106
49.99981,-0.00120374
50.09981,-0.001201337
50.19981,-0.001199129
50.2998,-0.001196783
50.3998,-0.001194467
50.4998,-0.001192127
50.5998,-0.001189817
50.6998,-0.001187527
50.7998,-0.00118514
50.8998,-0.001182883
50.99979,-0.001180697
51.09979,-0.001178364
51.19979,-0.001176126
51.29979,-0.001174004
51.39979,-0.001171723
51.49979,-0.001169477
51.59978,-0.001167309
51.69978,-0.001165075
51.79978,-0.001162931
51.89978,-0.001160783
51.99978,-0.001158492
52.09978,-0.001156343
52.19978,-0.001154147
52.29977,-0.001151999
52.39977,-0.001149864
52.49977,-0.001147631
52.59977,-0.001145526
52.69977,-0.001143385
52.79977,-0.001141285
52.89977,-0.001139146
52.99976,-0.001137081
53.09976,-0.001135015
53.19976,-0.001132776
53.29976,-0.00113086
53.39976,-0.001128695
53.49976,-0.001126601
53.59975,-0.00112463
53.69975,-0.001122502
53.79975,-0.001120566
53.89975,-0.001118482
53.99975,-0.001116424
54.09975,-0.001114416
54.19975,-0.00111238
54.29974,-0.001110364
54.39974,-0.001108372
54.49974,-0.001106241
54.59974,-0.001104317
54.69974,-0.001102351
54.79974,-0.001100355
54.89973,-0.001098423
54.99973,-0.001096384
55.09973,-0.001094479
55.19973,-0.001092587
55.29973,-0.00109052
55.39973,-0.001088601
55.49973,-0.001086757
55.59972,-0.001084769
55.69972,-0.001082793
55.79972,-0.001080949
55.89972,-0.001078957
55.99972,-0.001077119
56.09972,-0.001075253
56.19971,-0.001073323
56.29971,-0.001071461
56.39971,-0.001069672
56.49971,-0.00106787
56.59971,-0.001066001
56.69971,-0.001064159
56.79971,-0.00106229
56.8997,-0.00106052
56.9997,-0.001058631
57.0997,-0.001056803
57.1997,-0.001055064
57.2997,-0.001053253
57.3997,-0.00105144
57.49969,-0.001049695
57.59969,-0.00104786
57.69969,-0.001046077
57.79969,-0.001044275
57.89969,-0.001042458
57.99969,-0.00104071
58.09969,-0.001038958
58.19968,-0.00103712
58.29968,-0.001035483
58.39968,-0.00103374
58.49968,-0.001031906
58.59968,-0.001030172
58.69968,-0.001028351
58.79967,-0.00102662
58.89967,-0.001024918
58.99967,-0.001023191
59.09967,-0.001021509
59.19967,-0.001019736
59.29967,-0.001018049
59.39967,-0.001016377
59.49966,-0.001014659
59.59966,-0.001012929
59.69966,-0.00101127
59.79966,-0.001009578
59.89966,-0.001007903
59.99966,-0.001006248
60.09966,-0.001004546
60.19965,-0.001002869
60.29965,-0.001001259
60.39965,-0.0009995733
60.49965,-0.0009979525
60.59965,-0.0009963167
60.69965,-0.0009946648
60.79964,-0.0009930263
60.89964,-0.0009914753
60.99964,-0.0009898122
61.09964,-0.0009882282
61.19964,-0.0009866151
61.29964,-0.0009850056
61.39964,-0.0009834423
61.49963,-0.0009818038
61.59963,-0.0009802602
61.69963,-0.0009786537
61.79963,-0.0009770922
61.89963,-0.0009755496
61.99963,-0.0009738979
62.09962,-0.0009723779
62.19962,-0.0009708429
62.29962,-0.0009692476
62.39962,-0.0009677559
62.49962,-0.0009662792
62.59962,-0.0009646369
62.69962,-0.0009631518
62.79961,-0.0009616836
62.89961,-0.0009600714
62.99961,-0.0009586061
63.09961,-0.0009571049
63.19961,-0.0009555737
63.29961,-0.0009540207
63.3996,-0.0009525366
63.4996,-0.0009509705
63.5996,-0.0009494637
63.6996,-0.0009479494
63.7996,-0.0009465048
63.8996,-0.000944999
63.9996,-0.000943512
64.09959,-0.0009420335
64.19959,-0.0009406256
64.29959,-0.0009392375
64.39959,-0.000937806
64.49959,-0.0009362145
64.59959,-0.0009347981
64.69958,-0.0009333761
64.79958,-0.0009319173
64.89958,-0.0009305189
64.99958,-0.0009290724
65.09958,-0.0009276033
65.19958,-0.0009261945
65.29958,-0.0009247866
65.39957,-0.0009232337
65.49957,-0.0009218794
65.59957,-0.0009204848
65.69957,-0.0009190741
65.79957,-0.000917766
65.89957,-0.0009163129
65.99957,-0.0009149144
66.09956,-0.0009135564
66.19956,-0.000912271
66.29956,-0.0009108245
66.39956,-0.000909442
66.49956,-0.0009081179
66.59956,-0.0009067308
66.69955,-0.0009053662
66.79955,-0.0009039526
66.89955,-0.0009026258
66.99955,-0.0009011633
67.09955,-0.0008999428
67.19955,-0.0008985424
67.29955,-0.0008971317
67.39954,-0.0008958604
67.49954,-0.0008945504
67.59954,-0.000893184
67.69954,-0.0008918457
67.79954,-0.0008906281
67.89954,-0.0008891901
67.99953,-0.0008879084
68.09953,-0.0008866248
68.19953,-0.0008852489
68.29953,-0.0008839804
68.39953,-0.0008826714
68.49953,-0.0008813209
68.59953,-0.0008800176
68.69952,-0.0008787481
68.79952,-0.0008774071
68.89952,-0.0008760963
68.99952,-0.0008748409
69.09952,-0.0008734707
69.19952,-0.0008722041
69.29951,-0.0008709496
69.39951,-0.0008697574
69.49951,-0.0008683967
69.59951,-0.0008672449
69.69951,-0.00086595
69.79951,-0.0008646298
69.89951,-0.0008634902
69.9995,-0.0008622368
70.0995,-0.0008608779
70.1995,-0.0008597572
70.2995,-0.000858547
70.3995,-0.0008571307
70.4995,-0.0008560289
70.59949,-0.0008547633
70.69949,-0.0008534881
70.79949,-0.0008523891
70.89949,-0.0008511432
70.99949,-0.0008498389
71.09949,-0.0008486768
71.19949,-0.0008475279
71.29948,-0.00084625
71.39948,-0.0008450719
71.49948,-0.000843921
71.59948,-0.0008426093
71.69948,-0.0008415026
71.79948,-0.0008402869
71.89948,-0.0008390307
71.99947,-0.0008378827
72.09947,-0.0008366688
72.19947,-0.0008355905
72.29947,-0.0008343456
72.39947,-0.00083319
72.49947,-0.0008320176
72.59946,-0.000830815
72.69946,-0.0008296576
72.79946,-0.000828535
72.89946,-0.0008272882
72.99946,-0.0008261704
73.09946,-0.0008250225
73.19946,-0.0008238829
73.29945,-0.0008227546
73.39945,-0.0008216209
73.49945,-0.0008204625
73.59945,-0.0008193889
73.69945,-0.000818289
73.79945,-0.0008171128
73.89944,-0.0008160138
73.99944,-0.0008148451
74.09944,-0.0008137291
74.19944,-0.0008126425
74.29944,-0.0008115142
74.39944,-0.0008104642
74.49944,-0.0008092871
74.59943,-0.000808204
74.69943,-0.0008071078
74.79943,-0.0008059815
74.89943,-0.0008049004
74.99943,-0.0008037948
75.09943,-0.0008027185
75.19942,-0.0008015987
75.29942,-0.000800511
75.39942,-0.0007994149
75.49942,-0.0007983939
75.59942,-0.0007972488
75.69942,-0.0007960944
75.79942,-0.0007950499
75.89941,-0.0007939801
75.99941,-0.0007928312
76.09941,-0.0007918132
76.19941,-0.0007907791
76.29941,-0.0007896284
76.39941,-0.0007886678
76.4994,-0.0007875867
76.5994,-0.0007864321
76.6994,-0.0007854509
76.7994,-0.0007844337
76.8994,-0.0007833112
76.9994,-0.0007822696
77.0994,-0.0007812376
77.19939,-0.0007801668
77.29939,-0.0007791723
77.39939,-0.0007781063
77.49939,-0.0007770449
77.59939,-0.0007760316
77.69939,-0.0007750504
77.79939,-0.0007740182
77.89938,-0.0007730162
77.99938,-0.0007720076
78.09938,-0.0007709859
78.19938,-0.0007700017
78.29938,-0.0007689564
78.39938,-0.0007679318
78.49937,-0.0007669468
78.59937,-0.0007658902
78.69937,-0.0007649154
78.79937,-0.000763921
78.89937,-0.0007628776
78.99937,-0.0007618822
79.09937,-0.0007608961
79.19936,-0.0007600156
79.29936,-0.0007589788
79.39936,-0.0007579098
79.49936,-0.0007569428
79.59936,-0.0007560349
79.69936,-0.000755129
79.79935,-0.0007541844
79.89935,-0.0007532483
79.99935,-0.000752187
80.09935,-0.0007512943
80.19935,-0.0007503374
80.29935,-0.0007493072
80.39935,-0.0007483249
80.49934,-0.000747402
80.59934,-0.0007463982
80.69934,-0.0007454668
80.79934,-0.0007445251
80.89934,-0.0007435532
80.99934,-0.0007426218
81.09933,-0.0007417178
81.19933,-0.0007406847
81.29933,-0.0007397298
81.39933,-0.0007388153
81.49933,-0.0007378736
81.59933,-0.0007369384
81.69933,-0.0007360156
81.79932,-0.0007350324
81.89932,-0.0007341962
81.99932,-0.0007332544
82.09932,-0.0007323023
82.19932,-0.0007313154
82.29932,-0.0007305291
82.39931,-0.000729626
82.49931,-0.0007286456
82.59931,-0.0007277208
82.69931,-0.0007268573
82.79931,-0.0007259042
82.89931,-0.0007250303
82.99931,-0.0007241036
83.0993,-0.0007231582
83.1993,-0.000722272
83.2993,-0.0007214018
83.3993,-0.0007204431
83.4993,-0.0007195381
83.5993,-0.0007186934
83.6993,-0.000717745
83.79929,-0.0007168552
83.89929,-0.0007158889
83.99929,-0.0007150254
84.09929,-0.0007141439
84.19929,-0.0007132898
84.29929,-0.0007123367
84.39928,-0.000711492
84.49928,-0.0007106105
84.59928,-0.0007096847
84.69928,-0.0007088561
84.79928,-0.0007079708
84.89928,-0.0007070799
84.99928,-0.0007062061
85.09927,-0.0007053679
85.19927,-0.0007044827
85.29927,-0.0007035588
85.39927,-0.0007027649
85.49927,-0.0007019117
85.59927,-0.0007009907
85.69926,-0.0007001234
85.79926,-0.0006992721
85.89926,-0.0006984094
85.99926,-0.0006975628
86.09926,-0.0006967746
86.19926,-0.0006958884
86.29926,-0.0006950258
86.39925,-0.0006942357
86.49925,-0.0006933844
86.59925,-0.0006925415
86.69925,-0.0006916779
86.79925,-0.0006907974
86.89925,-0.0006900064
86.99924,-0.0006891739
87.09924,-0.0006883518
87.19924,-0.0006875033
87.29924,-0.0006866613
87.39924,-0.0006858562
87.49924,-0.0006850453
87.59924,-0.0006841535
87.69923,-0.000683306
87.79923,-0.0006825318
87.89923,-0.0006816994
87.99923,-0.0006808781
88.09923,-0.0006800692
88.19923,-0.0006792339
88.29922,-0.0006784457
88.39922,-0.0006776414
88.49922,-0.0006767864
88.59922,-0.0006759463
88.69922,-0.0006751976
88.79922,-0.0006743887
88.89922,-0.0006735816
88.99921,-0.0006727341
89.09921,-0.0006719534
89.19921,-0.0006711999
89.29921,-0.0006703308
89.39921,-0.0006695745
89.49921,-0.0006687854
89.59921,-0.0006679294
89.6992,-0.0006672532
89.7992,-0.0006664
89.8992,-0.0006655873
89.9992,-0.0006648517
90.0992,-0.000664058
90.1992,-0.0006632593
90.29919,-0.000662472
90.39919,-0.0006617403
90.49919,-0.0006608673
90.59919,-0.0006601384
90.69919,-0.0006593652
90.79919,-0.0006585846
90.89919,-0.0006578434
90.99918,-0.0006570599
91.09918,-0.0006562707
91.19918,-0.0006554882
91.29918,-0.0006547527
91.39918,-0.0006539691
91.49918,-0.0006532449
91.59917,-0.0006524407
91.69917,-0.0006516854
91.79917,-0.0006509527
91.89917,-0.0006501636
91.99917,-0.000649415
92.09917,-0.000648606
92.19917,-0.0006479458
92.29916,-0.0006471548
92.39916,-0.0006463345
92.49916,-0.0006456659
92.59916,-0.0006449238
92.69916,-0.0006441158
92.79916,-0.0006434066
92.89915,-0.0006426948
92.99915,-0.000641851
93.09915,-0.0006411521
93.19915,-0.0006404346
93.29915,-0.0006396529
93.39915,-0.000638957
93.49915,-0.0006381961
93.59914,-0.0006373928
93.69914,-0.0006367279
93.79914,-0.0006360169
93.89914,-0.0006352249
93.99914,-0.0006345534
94.09914,-0.0006338086
94.19913,-0.0006331042
94.29913,-0.0006324044
94.39913,-0.0006316755
94.49913,-0.0006309522
94.59913,-0.0006302187
94.69913,-0.0006295152
94.79913,-0.0006288381
94.89912,-0.0006281129
94.99912,-0.0006273944
95.09912,-0.0006266843
95.19912,-0.0006260063
95.29912,-0.0006252943
95.39912,-0.0006245946
95.49911,-0.0006238677
95.59911,-0.0006231585
95.69911,-0.0006225068
95.79911,-0.0006217638
95.89911,-0.0006210923
95.99911,-0.0006204246
96.09911,-0.0006196825
96.1991,-0.0006190187
96.2991,-0.0006183293
96.3991,-0.0006176578
96.4991,-0.0006169864
96.5991,-0.0006162782
96.6991,-0.0006156049
96.7991,-0.0006149184
96.89909,-0.0006141951
96.99909,-0.0006134973
97.09909,-0.0006128692
97.19909,-0.0006121327
97.29909,-0.0006114499
97.39909,-0.0006108162
97.49908,-0.0006100892
97.59908,-0.0006094092
97.69908,-0.0006087726
97.79908,-0.0006080578
97.89908,-0.0006073968
97.99908,-0.000606731
98.09908,-0.0006060341
98.19907,-0.0006053833
98.29907,-0.000604757
98.39907,-0.0006040545
98.49907,-0.0006034566
98.59907,-0.0006027813
98.69907,-0.0006020656
98.79906,-0.0006014403
98.89906,-0.0006007717
98.99906,-0.0006001256
99.09906,-0.0005994627
99.19906,-0.000598811
99.29906,-0.00059818
99.39906,-0.0005975613
99.49905,-0.0005969219
99.59905,-0.0005962184
99.69905,-0.0005956364
99.79905,-0.0005949819
99.89905,-0.0005943312
99.99905,-0.0005936663
100.099,-0.000593041
100.199,-0.0005923846
100.299,-0.000591682
100.399,-0.0005911152
100.499,-0.0005904691
100.599,-0.0005898202
100.699,-0.0005892176
100.799,-0.0005885357
100.899,-0.000587919
100.999,-0.0005872992
101.099,-0.0005866033
101.199,-0.0005859818
101.299,-0.0005854252
101.399,-0.0005847142
101.499,-0.0005840767
101.599,-0.0005834956
101.699,-0.0005828665
101.799,-0.0005822572
101.899,-0.0005816121
101.999,-0.0005809491
102.099,-0.000580369
102.199,-0.0005797598
102.299,-0.0005791091
102.399,-0.0005785063
102.499,-0.0005778744
102.599,-0.0005773038
102.699,-0.0005767245
102.799,-0.0005760926
102.899,-0.0005754814
102.999,-0.0005749136
103.099,-0.0005742874
103.199,-0.0005736357
103.299,-0.0005729897
103.399,-0.000572419
103.499,-0.0005718427
103.599,-0.0005711956
103.699,-0.0005706061
103.799,-0.0005699978
103.899,-0.0005693922
103.999,-0.0005687838
104.099,-0.0005682254
104.199,-0.0005675832
104.299,-0.0005670172
104.399,-0.0005664418
104.499,-0.000565776
104.599,-0.0005652194
104.699,-0.0005646092
104.799,-0.0005640103
104.899,-0.0005634396
104.999,-0.0005627963
105.099,-0.0005621908
105.199,-0.000561654
105.299,-0.0005610259
105.399,-0.0005604383
105.499,-0.000559892
105.599,-0.0005592818
105.699,-0.000558664
105.799,-0.0005580829
105.899,-0.0005575001
105.999,-0.0005569228
106.099,-0.0005563304
106.199,-0.000555772
106.299,-0.0005551448
106.3989,-0.0005546052
106.4989,-0.000554042
106.5989,-0.0005534704
106.6989,-0.0005528404
106.7989,-0.0005523224
106.8989,-0.0005517564
106.9989,-0.0005511387
107.0989,-0.0005506009
107.1989,-0.0005500651
107.2989,-0.0005494473
107.3989,-0.0005488879
107.4989,-0.0005483652
107.5989,-0.0005477475
107.6989,-0.0005472616
107.7989,-0.0005466297
107.8989,-0.0005460759
107.9989,-0.0005455401
108.0989,-0.0005450033
108.1989,-0.0005443799
108.2989,-0.0005438544
108.3989,-0.000543295
108.4989,-0.0005427064
108.5989,-0.0005421959
108.6989,-0.0005416648
108.7989,-0.0005410932
108.8989,-0.0005405659
108.9989,-0.0005400244
109.0989,-0.0005394546
109.1989,-0.0005389131
109.2989,-0.0005384413
109.3989,-0.0005378141
109.4989,-0.0005372717
109.5989,-0.0005367782
109.6989,-0.0005361868
109.7989,-0.0005356576
109.8989,-0.0005350878
109.9989,-0.0005345858
110.0989,-0.0005340622
110.1989,-0.0005335076
110.2989,-0.0005329321
110.3989,-0.000532419
110.4989,-0.0005319208
110.5989,-0.000531318
110.6989,-0.0005308397
110.7989,-0.0005303697
110.8989,-0.0005297576
110.9989,-0.0005292302
111.0989,-0.0005288224
111.1989,-0.0005282602
111.2989,-0.0005276783
111.3989,-0.0005272027
111.4989,-0.0005266452
111.5989,-0.0005261102
111.6989,-0.0005256366
111.7989,-0.0005250612
111.8989,-0.0005245169
111.9989,-0.0005240121
112.0989,-0.0005234725
112.1989,-0.0005229649
112.2989,-0.0005224488
112.3989,-0.00052188
112.4989,-0.0005213602
112.5989,-0.0005208337
112.6989,-0.0005203695
112.7989,-0.0005198393
112.8988,-0.0005192969
112.9988,-0.0005188287
113.0988,-0.0005183221
113.1988,-0.0005177957
113.2988,-0.0005173202
113.3988,-0.0005167795
113.4988,-0.0005162268
113.5988,-0.0005158595
113.6988,-0.0005153134
113.7988,-0.0005147888
113.8988,-0.0005143198
113.9988,-0.000513833
114.0988,-0.0005132764
114.1988,-0.000512814
114.2988,-0.000512312
114.3988,-0.0005117893
114.4988,-0.0005113354
114.5988,-0.0005108457
114.6988,-0.0005102505
114.7988,-0.0005097854
114.8988,-0.0005093729
114.9988,-0.0005088351
115.0988,-0.0005083407
115.1988,-0.0005078652
115.2988,-0.0005073576
115.3988,-0.0005068528
115.4988,-0.0005064007
115.5988,-0.0005058828
115.6988,-0.0005053893
115.7988,-0.0005049119
115.8988,-0.0005044391
115.9988,-0.0005039118
116.0988,-0.0005033995
116.1988,-0.0005029333
116.2988,-0.0005024361
116.3988,-0.0005019793
116.4988,-0.000501532
116.5988,-0.0005010112
116.6988,-0.0005005602
116.7988,-0.0005000968
116.8988,-0.0004996137
116.9988,-0.0004991136
117.0988,-0.0004986126
117.1988,-0.0004981493
117.2988,-0.0004976935
117.3988,-0.000497233
117.4988,-0.0004966783
117.5988,-0.0004962565
117.6988,-0.0004958016
117.7988,-0.0004952902
117.8988,-0.0004948062
117.9988,-0.0004943306
118.0988,-0.0004938258
118.1988,-0.0004933644
118.2988,-0.0004928803
118.3988,-0.0004924217
118.4988,-0.0004919489
118.5988,-0.0004914752
118.6988,-0.000490995
118.7988,-0.0004905006
118.8988,-0.0004901295
118.9988,-0.0004897038
119.0988,-0.0004891812
119.1988,-0.0004886962
119.2988,-0.0004882592
119.3988,-0.0004877686
119.4987,-0.0004873778
119.5987,-0.0004868834
119.6987,-0.0004863598
119.7987,-0.000485953
119.8987,-0.0004855132
119.9987,-0.0004850037
120.0987,-0.0004845611
120.1987,-0.0004840554
120.2987,-0.0004835609
120.3987,-0.0004831541
120.4987,-0.0004827106
120.5987,-0.0004821992
120.6987,-0.0004817773
120.7987,-0.0004812952
120.8987,-0.0004808299
120.9987,-0.0004803911
121.0987,-0.0004799324
121.1987,-0.0004794437
121.2987,-0.0004790199
121.3987,-0.0004785246
121.4987,-0.0004780839
121.5987,-0.0004776535
121.6987,-0.0004772118
121.7987,-0.000476772
121.8987,-0.0004763068
121.9987,-0.0004758924
122.0987,-0.0004754583
122.1987,-0.0004749912
122.2987,-0.000474509
122.3987,-0.0004740683
122.4987,-0.0004736888
122.5987,-0.000473297
122.6987,-0.0004728205
122.7987,-0.0004723317
122.8987,-0.0004718986
122.9987,-0.0004714974
123.0987,-0.0004710227
123.1987,-0.0004705952
123.2987,-0.000470179
123.3987,-0.000469742
123.4987,-0.0004692598
123.5987,-0.0004689104
123.6987,-0.0004683953
123.7987,-0.0004680007
123.8987,-0.0004675835
123.9987,-0.0004670929
124.0987,-0.0004666974
124.1987,-0.0004663348
124.2987,-0.0004658988
124.3987,-0.0004654232
124.4987,-0.0004650088
124.5987,-0.0004645709
124.6987,-0.0004641236
124.7987,-0.0004637055
124.8987,-0.0004632968
124.9987,-0.0004628184
125.0987,-0.0004624313
125.1987,-0.0004620622
125.2987,-0.0004615715
125.3987,-0.0004612448
125.4987,-0.0004608436
125.5987,-0.0004603887
125.6987,-0.0004599791
125.7987,-0.0004595242
125.8987,-0.0004591033
125.9986,-0.0004587021
126.0986,-0.0004582868
126.1986,-0.0004578733
126.2986,-0.0004574487
126.3986,-0.0004570333
126.4986,-0.0004566058
126.5986,-0.0004561547
126.6986,-0.0004557667
126.7986,-0.0004554079
126.8986,-0.0004549568
126.9986,-0.000454534
127.0986,-0.0004541677
127.1986,-0.0004537617
127.2986,-0.0004533116
127.3986,-0.0004529406
127.4986,-0.000452545
127.5986,-0.0004521241
127.6986,-0.0004517342
127.7986,-0.0004513161
127.8986,-0.0004509366
127.9986,-0.0004505345
128.0986,-0.0004500881
128.1986,-0.0004497161
128.2986,-0.0004493158
128.3986,-0.0004488996
128.4986,-0.0004484862
128.5986,-0.0004481198
128.6987,-0.0004477479
128.7987,-0.0004473316
128.8987,-0.0004469624
128.9987,-0.0004465311
129.0987,-0.0004461365
129.1987,-0.0004457533
129.2987,-0.0004453455
129.3987,-0.0004448379
129.4987,-0.0004445526
129.5987,-0.0004441966
129.6987,-0.000443737
129.7987,-0.0004433424
129.8987,-0.0004430034
129.9987,-0.0004425241
130.0987,-0.0004422076
130.1987,-0.0004419016
130.2988,-0.000441523
130.3988,-0.0004411849
130.4988,-0.000440829
130.5988,-0.0004403468
130.6988,-0.0004400115
130.7988,-0.000439664
130.8988,-0.0004391866
130.9988,-0.00043884
131.0988,-0.0004384803
131.1988,-0.0004380461
131.2988,-0.0004376968
131.3988,-0.0004373465
131.4988,-0.0004368982
131.5988,-0.0004365638
131.6988,-0.0004362013
131.7988,-0.000435753
131.8988,-0.0004353839
131.9989,-0.0004350203
132.0989,-0.000434622
132.1989,-0.0004342453
132.2989,-0.0004339251
132.3989,-0.0004335249
132.4989,-0.0004331501
132.5989,-0.0004327809
132.6989,-0.0004323675
132.7989,-0.0004319927
132.8989,-0.0004316414
132.9989,-0.0004312619
133.0989,-0.000430904
133.1989,-0.0004305471
133.2989,-0.0004301563
133.3989,-0.0004297899
133.4989,-0.0004294086
133.599,-0.0004290234
133.699,-0.0004286863
133.799,-0.0004283293
133.899,-0.0004279216
133.999,-0.0004275553
134.099,-0.0004271785
134.199,-0.0004268131
134.299,-0.0004264553
134.399,-0.0004260975
134.499,-0.0004257264
134.599,-0.000425344
134.699,-0.0004249711
134.799,-0.0004246274
134.899,-0.0004242554
134.999,-0.0004239117
135.099,-0.0004235774
135.1991,-0.0004232138
135.2991,-0.0004228748
135.3991,-0.0004224934
135.4991,-0.0004221412
135.5991,-0.0004218286
135.6991,-0.0004214575
135.7991,-0.0004210234
135.8991,-0.0004207437
135.9991,-0.0004203953
136.0991,-0.0004199941
136.1991,-0.0004196956
136.2991,-0.0004192972
136.3991,-0.000418928
136.4991,-0.0004186013
136.5991,-0.0004182481
136.6991,-0.0004178874
136.7991,-0.0004175249
136.8992,-0.0004171915
136.9992,-0.0004168666
137.0992,-0.0004164673
137.1992,-0.0004161358
137.2992,-0.0004158166
137.3992,-0.0004154229
137.4992,-0.0004150999
137.5992,-0.0004147703
137.6992,-0.0004143672
137.7992,-0.0004140941
137.8992,-0.0004137278
137.9992,-0.0004133483
138.0992,-0.0004130432
138.1992,-0.0004126928
138.2992,-0.0004123115
138.3992,-0.0004119639
138.4993,-0.0004116569
138.5993,-0.0004112774
138.6993,-0.0004109874
138.7993,-0.0004106069
138.8993,-0.0004102095
138.9993,-0.0004099128
139.0993,-0.0004096134
139.1993,-0.0004092263
139.2993,-0.0004089005
139.3993,-0.0004085746
139.4993,-0.000408197
139.5993,-0.0004078844
139.6993,-0.0004075322
139.7993,-0.0004071809
139.8993,-0.0004068842
139.9993,-0.0004065801
140.0993,-0.0004061949
140.1994,-0.000405854
140.2994,-0.0004054933
140.3994,-0.0004051665
140.4994,-0.0004048275
140.5994,-0.0004044828
140.6994,-0.0004041335
140.7994,-0.0004038227
140.8994,-0.0004034808
140.9994,-0.0004031597
141.0994,-0.0004027962
141.1994,-0.0004024496
141.2994,-0.0004021144
141.3994,-0.0004018036
141.4994,-0.0004014872
141.5994,-0.0004011745
141.6994,-0.0004008025
141.7995,-0.0004005323
141.8995,-0.0004001828
141.9995,-0.0003998081
142.0995,-0.0003995415
142.1995,-0.0003992308
142.2995,-0.0003988861
142.3995,-0.0003985791
142.4995,-0.0003982815
142.5995,-0.0003979416
142.6995,-0.0003976289
142.7995,-0.000397256
142.8995,-0.0003969245
142.9995,-0.0003966363
143.0995,-0.0003963105
143.1995,-0.0003959574
143.2995,-0.0003956532
143.3996,-0.0003953443
143.4996,-0.0003950165
143.5996,-0.0003947236
143.6996,-0.0003943799
143.7996,-0.0003940532
143.8996,-0.0003937895
143.9996,-0.0003934438
144.0996,-0.0003931227
144.1996,-0.0003928402
144.2996,-0.00039252
144.3996,-0.0003922007
144.4996,-0.0003918288
144.5996,-0.0003915933
144.6996,-0.0003912958
144.7996,-0.0003909614
144.8996,-0.0003906224
144.9996,-0.0003903343
145.0997,-0.0003899839
145.1997,-0.0003897381
145.2997,-0.0003894133
145.3997,-0.0003890516
145.4997,-0.0003887804
145.5997,-0.0003884442
145.6997,-0.0003881447
145.7997,-0.0003878406
145.8997,-0.0003875505
145.9997,-0.0003872256
146.0997,-0.0003869666
146.1997,-0.0003866606
146.2997,-0.0003862942
146.3997,-0.0003859844
146.4997,-0.0003856915
146.5997,-0.000385392
146.6998,-0.0003850926
146.7998,-0.0003848129
146.8998,-0.0003845163
146.9998,-0.0003841866
147.0998,-0.0003839418
147.1998,-0.0003836216
147.2998,-0.000383291
147.3998,-0.0003830085
147.4998,-0.0003827515
147.5998,-0.0003824322
147.6998,-0.000382128
147.7998,-0.0003818408
147.8998,-0.0003815187
147.9998,-0.0003812673
148.0998,-0.0003809292
148.1998,-0.0003806043
148.2999,-0.000380318
148.3999,-0.0003800788
148.4999,-0.0003797426
148.5999,-0.0003794676
148.6999,-0.0003791955
148.7999,-0.000378863
148.8999,-0.0003785748
148.9999,-0.0003782631
149.0999,-0.0003779326
149.1999,-0.0003776934
149.2999,-0.0003773977
149.3999,-0.0003770831
149.4999,-0.0003767959
149.5999,-0.0003765304
149.6999,-0.0003761857
149.7999,-0.0003759229
149.8999,-0.000375647
150,-0.0003753231
150.1,-0.0003750575
150.2,-0.00037479
150.3,-0.0003744689
150.4,-0.0003741836
150.5,-0.0003739274
150.6,-0.0003736223
150.7,-0.0003733398
150.8,-0.0003730648
150.9,-0.0003727757
151,-0.0003724913
151.1,-0.0003722172
151.2,-0.0003719328
151.3,-0.0003716249
151.4,-0.0003713414
151.5,-0.0003710805
151.6001,-0.0003707585
151.7001,-0.000370492
151.8001,-0.0003702048
151.9001,-0.0003699034
152.0001,-0.0003696133
152.1001,-0.0003693854
152.2001,-0.0003690963
152.3001,-0.000368876
152.4001,-0.0003685388
152.5001,-0.0003681198
152.6001,-0.0003679521
152.7001,-0.00036768
152.8001,-0.0003673786
152.9001,-0.0003670876
153.0001,-0.000366807
153.1001,-0.0003665367
153.2001,-0.0003662146
153.3002,-0.0003659764
153.4002,-0.0003657136
153.5002,-0.0003654255
153.6002,-0.0003651835
153.7002,-0.0003649028
153.8002,-0.000364576
153.9002,-0.0003643783
154.0002,-0.0003640901
154.1002,-0.000363736
154.2002,-0.0003635297
154.3002,-0.0003632623
154.4002,-0.0003629534
154.5002,-0.0003626945
154.6002,-0.0003623884
154.7002,-0.0003620945
154.8002,-0.0003618535
154.9003,-0.0003616011
155.0003,-0.0003612508
155.1003,-0.0003610097
155.2003,-0.0003607686
155.3003,-0.0003604993
155.4003,-0.0003602619
155.5003,-0.0003599766
155.6003,-0.0003596508
155.7003,-0.0003594351
155.8003,-0.0003591667
155.9003,-0.0003588625
156.0003,-0.000358596
156.1003,-0.0003583304
156.2003,-0.0003580733
156.3003,-0.0003578407
156.4003,-0.0003575724
156.5004,-0.0003572597
156.6004,-0.0003570149
156.7004,-0.0003567455
156.8004,-0.0003564827
156.9004,-0.0003562003
157.0004,-0.0003559884
157.1004,-0.0003557162
157.2004,-0.0003554186
157.3004,-0.000355185
157.4004,-0.0003549223
157.5004,-0.0003546219
157.6004,-0.0003543855
157.7004,-0.0003541087
157.8004,-0.0003538252
157.9004,-0.000353586
158.0004,-0.0003533252
158.1004,-0.0003530266
158.2005,-0.0003528157
158.3005,-0.0003525482
158.4005,-0.0003522346
158.5005,-0.0003520143
158.6005,-0.0003517657
158.7005,-0.0003514728
158.8005,-0.0003511893
158.9005,-0.0003509661
159.0005,-0.0003506911
159.1005,-0.0003504359
159.2005,-0.0003501835
159.3005,-0.000349918
159.4005,-0.0003496797
159.5005,-0.0003494377
159.6005,-0.0003491213
159.7005,-0.0003488642
159.8006,-0.0003486212
159.9006,-0.0003483876
160.0006,-0.0003481155
160.1006,-0.0003478424
160.2006,-0.0003475985
160.3006,-0.0003474167
160.4006,-0.0003471088
160.5006,-0.0003468479
160.6006,-0.0003466511
160.7006,-0.0003463997
160.8006,-0.0003461181
160.9006,-0.000345845
161.0006,-0.0003455926
161.1006,-0.0003453468
161.2006,-0.0003450709
161.3006,-0.0003448392
161.4007,-0.0003445878
161.5007,-0.0003443843
161.6007,-0.0003441508
161.7007,-0.00034389
161.8007,-0.0003436395
161.9007,-0.0003433965
162.0007,-0.0003431375
162.1007,-0.0003428409
162.2007,-0.0003426252
162.3007,-0.0003423982
162.4007,-0.0003421289
162.5007,-0.0003419142
162.6007,-0.0003416571
162.7007,-0.0003413605
162.8007,-0.000341174
162.9007,-0.0003409197
163.0007,-0.0003405976
163.1008,-0.0003404037
163.2008,-0.0003402031
163.3008,-0.0003398989
163.4008,-0.000339638
163.5008,-0.0003394337
163.6008,-0.0003391464
163.7008,-0.0003388959
163.8008,-0.0003386794
163.9008,-0.0003384053
164.0008,-0.0003381416
164.1008,-0.0003379335
164.2008,-0.0003377094
164.3008,-0.0003374419
164.4008,-0.0003372319
164.5008,-0.0003369729
164.6008,-0.000336682
164.7009,-0.0003365021
164.8009,-0.0003362902
164.9009,-0.0003360058
165.0009,-0.0003357515
165.1009,-0.0003355434
165.2009,-0.0003352854
165.3009,-0.0003350574
165.4009,-0.0003348531
165.5009,-0.000334547
165.6009,-0.0003343333
165.7009,-0.0003341317
165.8009,-0.0003338737
165.9009,-0.0003336449
166.0009,-0.0003334123
166.1009,-0.0003331702
166.2009,-0.000332931
166.3009,-0.0003326767
166.401,-0.0003324272
166.501,-0.000332171
166.601,-0.0003319611
166.701,-0.0003317209
166.801,-0.0003314629
166.901,-0.0003312736
167.001,-0.00033104
167.101,-0.0003308084
167.201,-0.0003305927
167.301,-0.0003303008
167.401,-0.0003300625
167.501,-0.0003298506
167.601,-0.0003296208
167.701,-0.0003293581
167.801,-0.0003291292
167.901,-0.0003288948
168.0011,-0.000328649
168.1011,-0.0003284662
168.2011,-0.0003282035
168.3011,-0.0003279361
168.4011,-0.0003277468
168.5011,-0.0003275471
168.6011,-0.0003272477
168.7011,-0.0003270018
168.8011,-0.0003268211
168.9011,-0.0003265856
169.0011,-0.0003263182
169.1011,-0.0003261374
169.2011,-0.000325901
169.3011,-0.0003256392
169.4011,-0.0003254311
169.5011,-0.0003252032
169.6012,-0.0003249517
169.7012,-0.0003247615
169.8012,-0.0003245091
169.9012,-0.0003242238
170.0012,-0.0003240081
170.1012,-0.0003237633
170.2012,-0.000323525
170.3012,-0.0003233046
170.4012,-0.0003230786
170.5012,-0.0003228366
170.6012,-0.000322653
170.7012,-0.0003224175
170.8012,-0.0003221623
170.9012,-0.0003219674
171.0012,-0.000321764
171.1012,-0.0003214956
171.2012,-0.000321263
171.3013,-0.0003210596
171.4013,-0.0003208317
171.5013,-0.0003206122
171.6013,-0.0003203787
171.7013,-0.000320147
171.8013,-0.0003199323
171.9013,-0.0003197279
172.0013,-0.0003194859
172.1013,-0.0003192731
172.2013,-0.0003190395
172.3013,-0.0003188361
172.4013,-0.0003186148
172.5013,-0.000318354
172.6013,-0.000318144
172.7013,-0.0003179132
172.8013,-0.0003177258
172.9014,-0.000317513
173.0014,-0.0003172484
173.1014,-0.0003170713
173.2014,-0.0003168783
173.3014,-0.0003166137
173.4014,-0.0003163716
173.5014,-0.000316236
173.6014,-0.0003159968
173.7014,-0.0003157774
173.8014,-0.0003155693
173.9014,-0.0003153451
174.0014,-0.0003151078
174.1014,-0.0003149449
174.2014,-0.0003147066
174.3014,-0.0003144665
174.4014,-0.0003142706
174.5014,-0.0003140258
174.6015,-0.000313812
174.7015,-0.0003136312
174.8015,-0.0003133901
174.9015,-0.000313133
175.0015,-0.0003129334
175.1015,-0.0003127064
175.2015,-0.0003125077
175.3015,-0.0003122958
175.4015,-0.0003120802
175.5015,-0.0003118654
175.6015,-0.0003116978
175.7015,-0.0003114548
175.8015,-0.0003112429
175.9015,-0.0003110414
176.0015,-0.0003108257
176.1015,-0.0003106129
176.2016,-0.0003103954
176.3016,-0.0003101769
176.4016,-0.0003099989
176.5016,-0.0003097823
176.6016,-0.000309562
176.7016,-0.0003093651
176.8016,-0.0003091928
176.9016,-0.0003089677
177.0016,-0.0003087775
177.1016,-0.0003085543
177.2016,-0.0003083405
177.3016,-0.0003081493
177.4016,-0.0003079676
177.5016,-0.0003077322
177.6016,-0.0003074779
177.7016,-0.0003072924
177.8017,-0.0003071379
177.9017,-0.0003068639
178.0017,-0.0003066784
178.1017,-0.0003064703
178.2017,-0.0003062838
178.3017,-0.0003060869
178.4017,-0.0003058506
178.5017,-0.0003056481
178.6017,-0.0003054673
178.7017,-0.000305279
178.8017,-0.0003050454
178.9017,-0.0003048684
179.0017,-0.0003046782
179.1017,-0.0003044597
179.2017,-0.0003042477
179.3017,-0.0003040603
179.4017,-0.0003038673
179.5018,-0.0003036865
179.6018,-0.0003034784
179.7018,-0.0003032768
179.8018,-0.0003030612
179.9018,-0.0003028747
180.0018,-0.0003026694
180.1018,-0.0003024462
180.2018,-0.000302272
180.3018,-0.0003020931
180.4018,-0.0003018708
180.5018,-0.0003016919
180.6018,-0.0003014923
180.7018,-0.0003012625
180.8018,-0.0003010732
180.9018,-0.0003008773
181.0018,-0.0003006588
181.1019,-0.000300494
181.2019,-0.0003002803
181.3019,-0.0003000627
181.4019,-0.0002998913
181.5019,-0.0002997124
181.6019,-0.0002994939
181.7019,-0.000299314
181.8019,-0.0002991201
181.9019,-0.0002988931
182.0019,-0.0002987283
182.1019,-0.0002985428
182.2019,-0.000298313
182.3019,-0.0002981256
182.4019,-0.0002979561
182.5019,-0.0002977366
182.6019,-0.0002975483
182.702,-0.0002973769
182.802,-0.0002971556
182.902,-0.0002969701
183.002,-0.0002968024
183.102,-0.0002966188
183.202,-0.0002964182
183.302,-0.000296228
183.402,-0.0002960481
183.502,-0.0002958428
183.602,-0.0002956808
183.702,-0.0002954492
183.802,-0.000295225
183.902,-0.000295128
184.002,-0.0002949444
184.102,-0.0002946581
184.202,-0.0002944679
184.302,-0.0002943078
184.4021,-0.0002941015
184.5021,-0.0002939188
184.6021,-0.0002937352
184.7021,-0.0002935186
184.8021,-0.0002933576
184.9021,-0.0002931956
185.0021,-0.0002929639
185.1021,-0.0002927586
185.2021,-0.0002925826
185.3021,-0.0002924196
185.4021,-0.0002922303
185.5021,-0.0002920599
185.6021,-0.0002918414
185.7021,-0.0002916681
185.8021,-0.0002914948
185.9021,-0.0002912999
186.0022,-0.000291137
186.1022,-0.0002909401
186.2022,-0.0002907377
186.3022,-0.0002905729
186.4022,-0.0002903713
186.5022,-0.0002902132
186.6022,-0.0002900295
186.7022,-0.0002898411
186.8022,-0.0002896566
186.9022,-0.0002894588
187.0022,-0.0002892978
187.1022,-0.0002891188
187.2022,-0.0002889324
187.3022,-0.0002887544
187.4022,-0.0002885858
187.5022,-0.0002883993
187.6022,-0.0002881696
187.7023,-0.0002880066
187.8023,-0.0002878014
187.9023,-0.0002876733
188.0023,-0.0002874708
188.1023,-0.0002872646
188.2023,-0.0002870809
188.3023,-0.0002869237
188.4023,-0.0002867212
188.5023,-0.000286547
188.6023,-0.000286384
188.7023,-0.0002861966
188.8023,-0.0002860234
188.9023,-0.0002858247
189.0023,-0.0002856618
189.1023,-0.0002854715
189.2023,-0.0002853048
189.3024,-0.0002851325
189.4024,-0.0002849385
189.5024,-0.0002847897
189.6024,-0.0002846419
189.7024,-0.0002844611
189.8024,-0.0002842755
189.9024,-0.0002841154
190.0024,-0.000283961
190.1024,-0.0002838047
190.2024,-0.000283622
190.3024,-0.0002834223
190.4024,-0.0002832321
190.5024,-0.000283121
190.6024,-0.0002829128
190.7024,-0.0002827377
190.8024,-0.0002825277
190.9025,-0.0002824071
191.0025,-0.0002822602
191.1025,-0.0002820483
191.2025,-0.0002818544
191.3025,-0.0002816943
191.4025,-0.0002815342
191.5025,-0.000281343
191.6025,-0.0002811819
191.7025,-0.0002810162
191.8025,-0.0002808175
191.9025,-0.0002806555
192.0025,-0.0002804832
192.1025,-0.0002802977
192.2025,-0.0002801206
192.3025,-0.0002799379
192.4025,-0.0002797863
192.5025,-0.0002796168
192.6026,-0.000279452
192.7026,-0.0002792862
192.8026,-0.0002791082
192.9026,-0.0002789256
193.0026,-0.0002787306
193.1026,-0.0002785969
193.2026,-0.0002784283
193.3026,-0.0002782023
193.4026,-0.0002780469
193.5026,-0.0002778567
193.6026,-0.0002777361
193.7026,-0.00027756
193.8026,-0.0002773736
193.9026,-0.0002772135
194.0026,-0.0002770195
194.1026,-0.000276898
194.2027,-0.0002767417
194.3027,-0.0002765326
194.4027,-0.0002763706
194.5027,-0.0002762134
194.6027,-0.0002760335
194.7027,-0.0002758499
194.8027,-0.0002756954
194.9027,-0.0002755203
195.0027,-0.0002753752
195.1027,-0.000275201
195.2027,-0.0002749797
195.3027,-0.0002748337
195.4027,-0.0002746877
195.5027,-0.0002745116
195.6027,-0.00027436
195.7027,-0.0002741849
195.8027,-0.0002739862
195.9028,-0.0002738675
196.0028,-0.0002736942
196.1028,-0.0002735021
196.2028,-0.0002733345
196.3028,-0.0002731876
196.4028,-0.0002730266
196.5028,-0.0002728702
196.6028,-0.0002726913
196.7028,-0.000272518
196.8028,-0.0002723984
196.9028,-0.0002722073
197.0028,-0.0002720227
197.1028,-0.0002718937
197.2028,-0.0002717665
197.3028,-0.000271581
197.4028,-0.0002714068
197.5029,-0.0002712589
197.6029,-0.0002710885
197.7029,-0.0002708944
197.8029,-0.0002707702
197.9029,-0.0002706082
198.0029,-0.0002704057
198.1029,-0.0002702362
198.2029,-0.000270126
198.3029,-0.0002699499
198.4029,-0.0002697606
198.5029,-0.0002696335
198.6029,-0.0002694452
198.7029,-0.0002693086
198.8029,-0.0002691306
198.9029,-0.0002689507
199.0029,-0.0002688114
199.103,-0.0002686447
199.203,-0.0002684516
199.303,-0.0002683188
199.403,-0.0002681776
199.503,-0.0002679553
199.603,-0.0002678819
199.703,-0.0002677425
199.803,-0.000267556
199.903,-0.0002673526
200.003,-0.0002672236
200.103,-0.0002670456
200.203,-0.0002668968
200.303,-0.0002667537
200.403,-0.0002665691
200.503,-0.0002664099
200.603,-0.0002662677
200.703,-0.0002661406
200.8031,-0.0002659532
200.9031,-0.0002657649
201.0031,-0.0002656641
201.1031,-0.0002655068
201.2031,-0.0002653213
201.3031,-0.0002651706
201.4031,-0.0002650133
201.5031,-0.0002648608
201.6031,-0.0002647205
201.7031,-0.0002645509
201.8031,-0.000264405
201.9031,-0.000264276
202.0031,-0.0002641319
202.1031,-0.0002639746
202.2031,-0.0002638108
202.3031,-0.0002636516
202.4032,-0.0002634906
202.5032,-0.0002633795
202.6032,-0.0002631967
202.7032,-0.0002630263
202.8032,-0.0002628879
202.9032,-0.000262741
203.0032,-0.0002625856
203.1032,-0.0002624377
203.2032,-0.0002622861
203.3032,-0.0002621138
203.4032,-0.0002619593
203.5032,-0.0002618388
203.6032,-0.0002616589
203.7032,-0.0002614903
203.8032,-0.000261367
203.9032,-0.0002612059
204.0033,-0.0002610468
204.1033,-0.0002609046
204.2033,-0.0002607605
204.3033,-0.0002606183
204.4033,-0.0002604996
204.5033,-0.0002602915
204.6033,-0.0002601342
204.7033,-0.000260041
204.8033,-0.0002598498
204.9033,-0.000259701
205.0033,-0.0002595589
205.1033,-0.0002594157
205.2033,-0.0002592707
205.3033,-0.0002591379
205.4033,-0.0002589364
205.5033,-0.0002587857
205.6033,-0.0002587122
205.7034,-0.000258538
205.8034,-0.0002584278
205.9034,-0.0002582913
206.0034,-0.0002581011
206.1034,-0.0002579843
206.2034,-0.0002578157
206.3034,-0.0002576688
206.4034,-0.0002575087
206.5034,-0.000257375
206.6034,-0.0002572403
206.7034,-0.000257051
206.8034,-0.0002569154
206.9034,-0.0002567902
207.0034,-0.0002565905
207.1034,-0.000256485
207.2034,-0.0002563014
207.3035,-0.0002561469
207.4035,-0.0002560405
207.5035,-0.0002558974
207.6035,-0.0002556911
207.7035,-0.0002555725
207.8035,-0.000255483
207.9035,-0.000255306
208.0035,-0.0002551478
208.1035,-0.0002549999
208.2035,-0.000254869
208.3035,-0.0002547117
208.4035,-0.0002545668
208.5035,-0.0002544292
208.6035,-0.0002542965
208.7035,-0.0002541307
208.8035,-0.000253981
208.9035,-0.0002538058
209.0036,-0.0002537164
209.1036,-0.0002535553
209.2036,-0.0002533896
209.3036,-0.0002532671
209.4036,-0.0002531409
209.5036,-0.0002529648
209.6036,-0.0002528575
209.7036,-0.0002527464
209.8036,-0.0002525853
209.9036,-0.0002524629
210.0036,-0.0002523386
210.1036,-0.0002521747
210.2036,-0.0002520231
210.3036,-0.0002519063
210.4036,-0.00025175
210.5036,-0.0002515861
210.6037,-0.000251475
210.7037,-0.0002513554
210.8037,-0.0002511605
210.9037,-0.0002510569
211.0037,-0.0002509514
211.1037,-0.0002507885
211.2037,-0.0002506312
211.3037,-0.0002504928
211.4037,-0.0002503167
211.5037,-0.0002501924
211.6037,-0.000250101
211.7037,-0.0002499221
211.8037,-0.0002497592
211.9037,-0.000249633
212.0037,-0.000249535
212.1037,-0.0002494164
212.2038,-0.0002491998
212.3038,-0.0002490453
212.4038,-0.0002489474
212.5038,-0.0002487892
212.6038,-0.0002486263
212.7038,-0.0002484897
212.8038,-0.0002483428
212.9038,-0.0002482204
213.0038,-0.0002480838
213.1038,-0.0002479567
213.2038,-0.0002477863
213.3038,-0.0002477166
213.4038,-0.0002475574
213.5038,-0.0002473728
213.6038,-0.0002472721
213.7038,-0.0002471346
213.8038,-0.0002469858
213.9039,-0.0002468436
214.0039,-0.0002467278
214.1039,-0.0002465827
214.2039,-0.0002464283
214.3039,-0.00024632
214.4039,-0.0002461373
214.5039,-0.0002459828
214.6039,-0.0002458971
214.7039,-0.0002457276
214.8039,-0.0002455459
214.9039,-0.0002454187
215.0039,-0.0002453001
215.1039,-0.0002451683
215.2039,-0.0002450797
215.3039,-0.0002449244
215.4039,-0.0002447614
215.504,-0.0002446428
215.604,-0.0002445119
215.704,-0.0002443781
215.804,-0.0002442331
215.904,-0.0002441013
216.004,-0.0002439139
216.104,-0.0002437962
216.204,-0.0002436784
216.304,-0.0002435315
216.404,-0.0002433648
216.504,-0.0002433422
216.604,-0.0002432066
216.704,-0.000243023
216.804,-0.000242878
216.904,-0.0002427706
217.004,-0.0002425794
217.104,-0.0002424975
217.2041,-0.0002423657
217.3041,-0.000242199
217.4041,-0.0002420907
217.5041,-0.0002419786
217.6041,-0.0002418223
217.7041,-0.0002416999
217.8041,-0.0002415793
217.9041,-0.0002414333
218.0041,-0.0002413354
218.1041,-0.0002411866
218.2041,-0.0002410227
218.3041,-0.0002409653
218.4041,-0.0002408109
218.5041,-0.0002406376
218.6041,-0.0002405368
218.7041,-0.0002404031
218.8042,-0.0002402552
218.9042,-0.0002401356
219.0042,-0.0002399916
219.1042,-0.0002398201
219.2042,-0.0002397119
219.3042,-0.0002396139
219.4042,-0.0002394689
219.5042,-0.0002393399
219.6042,-0.0002392344
219.7042,-0.0002390856
219.8042,-0.0002389377
219.9042,-0.0002388078
220.0042,-0.0002386938
220.1042,-0.0002385479
220.2042,-0.0002384207
220.3042,-0.0002382823
220.4043,-0.0002381476
220.5043,-0.0002380582
220.6043,-0.0002379131
220.7043,-0.0002377644
220.8043,-0.0002376457
220.9043,-0.0002375365
221.0043,-0.0002373773
221.1043,-0.0002372605
221.2043,-0.0002371447
221.3043,-0.0002369629
221.4043,-0.0002368867
221.5043,-0.0002367878
221.6043,-0.0002366088
221.7043,-0.0002364855
221.8043,-0.0002363932
221.9043,-0.0002362567
222.0043,-0.0002361502
222.1044,-0.0002360033
222.2044,-0.0002358357
222.3044,-0.0002357368
222.4044,-0.0002356153
222.5044,-0.0002354675
222.6044,-0.0002353375
222.7044,-0.0002352151
222.8044,-0.000235087
222.9044,-0.00023499
223.0044,-0.0002348666
223.1044,-0.0002346792
223.2044,-0.0002345804
223.3044,-0.0002344777
223.4044,-0.00023436
223.5044,-0.0002342357
223.6044,-0.0002340709
223.7045,-0.0002339503
223.8045,-0.0002338759
223.9045,-0.0002337375
224.0045,-0.0002335322
224.1045,-0.0002334588
224.2045,-0.0002334164
224.3045,-0.0002332685
224.4045,-0.0002331065
224.5045,-0.0002329738
224.6045,-0.0002328749
224.7045,-0.0002327308
224.8045,-0.0002326244
224.9045,-0.0002324803
225.0045,-0.0002323419
225.1045,-0.0002322223
225.2045,-0.0002320951
225.3046,-0.0002319435
225.4046,-0.0002318446
225.5046,-0.0002317411
225.6046,-0.0002315696
225.7046,-0.0002314774
225.8046,-0.0002313634
225.9046,-0.0002312363
226.0046,-0.0002311412
226.1046,-0.0002310347
226.2046,-0.0002308633
226.3046,-0.0002307607
226.4046,-0.0002306336
226.5046,-0.0002305196
226.6046,-0.0002303981
226.7046,-0.0002302701
226.8046,-0.0002301062
226.9046,-0.0002300271
227.0047,-0.0002299028
227.1047,-0.0002297088
227.2047,-0.000229689
227.3047,-0.0002295892
227.4047,-0.0002294413
227.5047,-0.0002292907
227.6047,-0.0002291843
227.7047,-0.0002290581
227.8047,-0.0002289319
227.9047,-0.0002288113
228.0047,-0.000228672
228.1047,-0.0002285476
228.2047,-0.0002284817
228.3047,-0.0002283574
228.4047,-0.000228185
228.5047,-0.000228089
228.6048,-0.0002280052
228.7048,-0.0002278479
228.8048,-0.000227766
228.9048,-0.00022762
229.0048,-0.0002274835
229.1048,-0.0002274006
229.2048,-0.0002272942
229.3048,-0.000227119
229.4048,-0.0002270569
229.5048,-0.0002269345
229.6048,-0.0002267649
229.7048,-0.0002266962
229.8048,-0.0002265832
229.9048,-0.0002264429
230.0048,-0.0002263336
230.1048,-0.0002262253
230.2048,-0.0002260822
230.3049,-0.0002259956
230.4049,-0.0002258967
230.5049,-0.0002257554
230.6049,-0.0002256123
230.7049,-0.0002255765
230.8049,-0.0002255049
230.9049,-0.000225341
231.0049,-0.0002252205
231.1049,-0.0002251376
231.2049,-0.0002249634
231.3049,-0.0002249135
231.4049,-0.0002247496
231.5049,-0.000224598
231.6049,-0.0002245217
231.7049,-0.0002244059
231.8049,-0.0002242562
231.905,-0.00022413
232.005,-0.0002240264
232.105,-0.0002238795
232.205,-0.0002237947
232.305,-0.0002236855
232.405,-0.0002235216
232.505,-0.0002234237
232.605,-0.0002233568
232.705,-0.0002232259
232.805,-0.000223095
232.905,-0.0002229707
233.005,-0.000222885
233.105,-0.0002227776
233.205,-0.0002226712
233.305,-0.0002225337
233.405,-0.0002223981
233.5051,-0.0002223087
233.6051,-0.0002222051
233.7051,-0.0002220892
233.8051,-0.0002219687
233.9051,-0.0002218632
234.0051,-0.0002217361
234.1051,-0.0002216683
234.2051,-0.0002215346
234.3051,-0.0002214121
234.4051,-0.0002213029
234.5051,-0.0002212078
234.6051,-0.0002210712
234.7051,-0.0002209422
234.8051,-0.0002208659
234.9051,-0.000220687
235.0051,-0.0002206587
235.1051,-0.000220525
235.2052,-0.0002203546
235.3052,-0.0002202868
235.4052,-0.0002201973
235.5052,-0.0002200607
235.6052,-0.0002199412
235.7052,-0.0002198338
235.8052,-0.0002197095
235.9052,-0.0002196285
236.0052,-0.0002195249
236.1052,-0.0002193648
236.2052,-0.0002192735
236.3052,-0.0002192141
236.4052,-0.0002190597
236.5052,-0.0002189335
236.6052,-0.0002188139
236.7052,-0.0002187273
236.8053,-0.0002186086
236.9053,-0.0002185116
237.0053,-0.0002183995
237.1053,-0.0002182555
237.2053,-0.0002181669
237.3053,-0.0002180511
237.4053,-0.0002179541
237.5053,-0.0002178609
237.6053,-0.0002177507
237.7053,-0.0002176273
237.8053,-0.0002175642
237.9053,-0.0002174305
238.0053,-0.0002173005
238.1053,-0.000217213
238.2053,-0.0002171103
238.3053,-0.0002170105
238.4053,-0.0002169144
238.5054,-0.0002167261
238.6054,-0.0002166357
238.7054,-0.0002165914
238.8054,-0.0002164614
238.9054,-0.0002163155
239.0054,-0.0002162703
239.1054,-0.0002161441
239.2054,-0.0002160141
239.3054,-0.0002159463
239.4054,-0.0002158117
239.5054,-0.0002156393
239.6054,-0.0002155819
239.7054,-0.0002155178
239.8054,-0.0002153681
239.9054,-0.0002152626
240.0054,-0.0002151393
240.1055,-0.0002150178
240.2055,-0.0002149321
240.3055,-0.0002148483
240.4055,-0.0002147325
240.5055,-0.0002146204
240.6055,-0.0002145234
240.7055,-0.0002144198
240.8055,-0.0002143134
240.9055,-0.0002142126
241.0055,-0.0002140921
241.1055,-0.0002139734
241.2055,-0.000213899
241.3055,-0.0002137832
241.4055,-0.0002136617
241.5055,-0.0002135487
241.6055,-0.0002134385
241.7056,-0.0002133688
241.8056,-0.0002132586
241.9056,-0.0002131268
242.0056,-0.0002130109
242.1056,-0.0002129281
242.2056,-0.0002128264
242.3056,-0.0002127077
242.4056,-0.0002125994
242.5056,-0.0002125128
242.6056,-0.0002124082
242.7056,-0.0002123065
242.8056,-0.0002121916
242.9056,-0.0002120918
243.0056,-0.0002120042
243.1056,-0.0002118959
243.2056,-0.000211765
243.3056,-0.0002116803
243.4057,-0.0002115955
243.5057,-0.000211475
243.6057,-0.000211377
243.7057,-0.0002112659
243.8057,-0.0002111764
243.9057,-0.0002110851
244.0057,-0.0002109646
244.1057,-0.0002108318
244.2057,-0.0002107404
244.3057,-0.0002106576
244.4057,-0.0002105408
244.5057,-0.000210425
244.6057,-0.0002103204
244.7057,-0.0002102611
244.8057,-0.0002102008
244.9057,-0.000210053
245.0058,-0.0002099221
245.1058,-0.0002098364
245.2058,-0.0002097507
245.3058,-0.0002096104
245.4058,-0.0002095181
245.5058,-0.0002093938
245.6058,-0.0002092883
245.7058,-0.0002092214
245.8058,-0.0002091065
245.9058,-0.000208969
246.0058,-0.0002088758
246.1058,-0.0002088052
246.2058,-0.0002086874
246.3058,-0.0002085914
246.4058,-0.0002084925
246.5058,-0.0002084143
246.6059,-0.000208323
246.7059,-0.0002082222
246.8059,-0.0002081017
246.9059,-0.0002080217
247.0059,-0.0002079303
247.1059,-0.0002078211
247.2059,-0.0002076808
247.3059,-0.0002075856
247.4059,-0.0002075216
247.5059,-0.0002073897
247.6059,-0.0002072824
247.7059,-0.0002071807
247.8059,-0.0002070846
247.9059,-0.0002070074
248.0059,-0.0002069264
248.1059,-0.0002068115
248.2059,-0.0002066948
248.306,-0.0002066128
248.406,-0.0002064772
248.506,-0.0002064122
248.606,-0.0002062936
248.706,-0.0002061834
248.806,-0.0002060817
248.906,-0.0002060223
249.006,-0.0002058915
249.106,-0.0002058171
249.206,-0.0002057031
249.306,-0.0002055788
249.406,-0.0002055148
249.506,-0.000205462
249.606,-0.0002053104
249.706,-0.000205204
249.806,-0.0002051202
249.9061,-0.0002050477
250.0061,-0.0002049422
250.1061,-0.0002048301
250.2061,-0.0002047209
250.3061,-0.0002046192
250.4061,-0.0002045457
250.5061,-0.0002044506
250.6061,-0.000204331
250.7061,-0.000204234
250.8061,-0.0002041577
250.9061,-0.000204008
251.0061,-0.0002039515
251.1061,-0.0002037453
251.2061,-0.0002037716
251.3061,-0.0002036445
251.4061,-0.0002035136
251.5061,-0.0002034524
251.6062,-0.0002033526
251.7062,-0.0002032283
251.8062,-0.0002031237
251.9062,-0.0002030804
252.0062,-0.0002029702
252.1062,-0.0002028939
252.2062,-0.0002028054
252.3062,-0.0002027367
252.4062,-0.0002026773
252.5062,-0.0002025568
252.6062,-0.0002024428
252.7062,-0.0002023741
252.8062,-0.0002023204
252.9062,-0.0002021773
253.0062,-0.0002020774
253.1062,-0.0002020228
253.2063,-0.0002019296
253.3063,-0.0002017912
253.4063,-0.000201746
253.5063,-0.0002016471
253.6063,-0.0002015482
253.7063,-0.0002014926
253.8063,-0.0002013985
253.9063,-0.000201292
254.0063,-0.000201244
254.1063,-0.0002011498
254.2063,-0.0002010359
254.3063,-0.0002009738
254.4063,-0.0002008767
254.5063,-0.0002007703
254.6063,-0.0002006969
254.7063,-0.0002005952
254.8064,-0.0002005208
254.9064,-0.0002004426
255.0064,-0.0002003437
255.1064,-0.0002002213
255.2064,-0.0002001572
255.3064,-0.0002000781
255.4064,-0.0001999717
255.5064,-0.0001998408
255.6064,-0.000199839
255.7064,-0.0001997787
255.8064,-0.0001996064
255.9064,-0.0001995122
256.0064,-0.0001994585
256.1064,-0.0001993521
256.2064,-0.000199289
256.3064,-0.0001991854
256.4064,-0.0001990761
256.5064,-0.0001990055
256.6064,-0.0001989443
256.7065,-0.0001988294
256.8065,-0.0001987296
256.9065,-0.0001986759
257.0065,-0.0001985667
257.1065,-0.0001985073
257.2065,-0.0001984009
257.3065,-0.0001983228
257.4065,-0.0001981975
257.5065,-0.0001981363
257.6065,-0.0001980826
257.7065,-0.0001979621
257.8065,-0.0001978801
257.9065,-0.0001977756
258.0065,-0.0001976777
258.1065,-0.0001976165
258.2065,-0.0001975157
258.3065,-0.0001973961
258.4066,-0.0001973274
258.5066,-0.0001972878
258.6066,-0.0001971625
258.7066,-0.0001970731
258.8066,-0.0001969591
258.9066,-0.0001968951
259.0066,-0.0001968753
259.1066,-0.0001967595
259.2066,-0.0001965947
259.3066,-0.0001965325
259.4066,-0.0001964732
259.5066,-0.0001963536
259.6066,-0.0001962735
259.7066,-0.0001961653
259.8066,-0.0001960805
259.9066,-0.0001960099
260.0067,-0.0001959298
260.1067,-0.0001957923
260.2067,-0.0001957113
260.3067,-0.0001956426
260.4067,-0.0001955578
260.5067,-0.0001954354
260.6067,-0.0001953761
260.7067,-0.0001952838
260.8067,-0.0001951859
260.9067,-0.000195087
261.0067,-0.0001949994
261.1067,-0.0001949306
261.2067,-0.0001948176
261.3067,-0.0001947093
261.4067,-0.0001946783
261.5067,-0.000194601
261.6068,-0.0001944909
261.7068,-0.0001943769
261.8068,-0.0001943082
261.9068,-0.0001942309
262.0068,-0.000194116
262.1068,-0.0001940351
262.2068,-0.0001939418
262.3068,-0.0001938241
262.4068,-0.0001937761
262.5068,-0.000193664
262.6068,-0.0001935642
262.7068,-0.0001934757
262.8068,-0.000193406
262.9068,-0.0001933033
263.0068,-0.0001932252
263.1068,-0.0001931225
263.2068,-0.0001930453
263.3069,-0.0001929681
263.4069,-0.000192905
263.5069,-0.0001927477
263.6069,-0.0001926724
263.7069,-0.0001926027
263.8069,-0.0001925057
263.9069,-0.00019242
264.0069,-0.0001923381
264.1069,-0.0001922618
264.2069,-0.000192162
264.3069,-0.0001920715
264.4069,-0.0001919661
264.5069,-0.0001919124
264.6069,-0.0001918239
264.7069,-0.000191693
264.8069,-0.0001916092
264.907,-0.0001915649
265.007,-0.0001914905
265.107,-0.0001913719
265.207,-0.0001912739
265.307,-0.0001911958
265.407,-0.0001910912
265.507,-0.0001910743
265.607,-0.00019095
265.707,-0.0001908247
265.807,-0.0001907701
265.907,-0.0001907258
266.007,-0.0001905977
266.107,-0.000190529
266.207,-0.0001904499
266.307,-0.0001903218
266.407,-0.0001902568
266.507,-0.0001902003
266.6071,-0.0001900534
266.7071,-0.000189979
266.8071,-0.0001898764
266.9071,-0.0001897653
267.0071,-0.0001897144
267.1071,-0.0001896428
267.2071,-0.0001895044
267.3071,-0.0001894498
267.4071,-0.0001893612
267.5071,-0.0001892859
267.6071,-0.0001891964
267.7071,-0.0001890778
267.8071,-0.0001890185
267.9071,-0.0001889525
268.0071,-0.0001888424
268.1071,-0.0001887303
268.2072,-0.0001886785
268.3072,-0.0001886013
268.4072,-0.0001884967
268.5072,-0.0001884233
268.6072,-0.0001883319
268.7072,-0.0001882359
268.8072,-0.0001881832
268.9072,-0.0001880833
269.0072,-0.0001879929
269.1072,-0.0001879185
269.2072,-0.0001878394
269.3072,-0.0001877565
269.4072,-0.000187685
269.5072,-0.0001875927
269.6072,-0.000187475
269.7072,-0.0001874213
269.8073,-0.0001873761
269.9073,-0.0001872744
270.0073,-0.0001871642
270.1073,-0.0001870992
270.2073,-0.0001870154
270.3073,-0.0001869193
270.4073,-0.0001868666
270.5073,-0.0001867715
270.6073,-0.0001866509
270.7073,-0.000186602
270.8073,-0.0001865313
270.9073,-0.0001864485
271.0073,-0.0001863599
271.1073,-0.0001862799
271.2073,-0.0001861848
271.3073,-0.0001861245
271.4073,-0.0001860407
271.5074,-0.0001859305
271.6074,-0.0001858703
271.7074,-0.0001857798
271.8074,-0.0001856942
271.9074,-0.0001856141
272.0074,-0.0001855444
272.1074,-0.0001854399
272.2074,-0.0001853824
272.3074,-0.0001853184
272.4074,-0.0001851743
272.5074,-0.0001851122
272.6074,-0.0001850462
272.7074,-0.0001849671
272.8074,-0.0001848739
272.9074,-0.0001848268
273.0074,-0.0001847232
273.1075,-0.0001846102
273.2075,-0.0001845989
273.3075,-0.0001845066
273.4075,-0.0001843748
273.5075,-0.0001843192
273.6075,-0.0001842552
273.7075,-0.0001841582
273.8075,-0.0001840838
273.9075,-0.0001840019
274.0075,-0.000183903
274.1075,-0.0001838389
274.2075,-0.0001837608
274.3075,-0.0001836525
274.4075,-0.0001835865
274.5075,-0.0001835131
274.6075,-0.0001834218
274.7076,-0.000183353
274.8076,-0.0001833059
274.9076,-0.0001831901
275.0076,-0.0001831166
275.1076,-0.000183078
275.2076,-0.0001829688
275.3076,-0.0001828878
275.4076,-0.0001828115
275.5076,-0.0001827315
275.6076,-0.0001826618
275.7076,-0.0001825827
275.8076,-0.00018248
275.9076,-0.0001823962
276.0076,-0.0001823152
276.1076,-0.0001822587
276.2076,-0.0001821787
276.3076,-0.000182109
276.4077,-0.0001820054
276.5077,-0.000181915
276.6077,-0.0001818811
276.7077,-0.0001817935
276.8077,-0.0001816692
276.9077,-0.0001816108
277.0077,-0.000181527
277.1077,-0.0001814469
277.2077,-0.0001813801
277.3077,-0.0001812897
277.4077,-0.0001812068
277.5077,-0.0001811644
277.6077,-0.0001810589
277.7077,-0.0001809751
277.8077,-0.0001809036
277.9077,-0.0001808301
278.0078,-0.0001807378
278.1078,-0.0001806766
278.2078,-0.0001805918
278.3078,-0.0001804892
278.4078,-0.000180444
278.5078,-0.0001803762
278.6078,-0.0001802641
278.7078,-0.0001801812
278.8078,-0.0001801134
278.9078,-0.0001800409
279.0078,-0.0001799816
279.1078,-0.0001799034
279.2078,-0.0001798046
279.3078,-0.000179781
279.4078,-0.0001796784
279.5078,-0.0001795814
279.6078,-0.0001795315
279.7079,-0.0001794947
279.8079,-0.0001794147
279.9079,-0.0001793167
280.0079,-0.0001792508
280.1079,-0.0001791896
280.2079,-0.0001791322
280.3079,-0.0001790512
280.4079,-0.000178956
280.5079,-0.0001789109
280.6079,-0.0001788082
280.7079,-0.0001787272
280.8079,-0.0001786236
280.9079,-0.0001785897
281.0079,-0.0001784956
281.1079,-0.0001784099
281.2079,-0.0001783279
281.308,-0.0001782385
281.408,-0.0001781631
281.508,-0.0001780944
281.608,-0.0001780332
281.708,-0.0001779446
281.808,-0.0001778542
281.908,-0.0001777751
282.008,-0.0001777007
282.108,-0.0001776376
282.208,-0.0001775397
282.308,-0.0001774493
282.408,-0.0001774041
282.508,-0.0001773297
282.608,-0.0001772289
282.708,-0.0001771903
282.808,-0.0001771187
282.9081,-0.0001770283
283.0081,-0.0001769436
283.1081,-0.0001768767
283.2081,-0.0001768485
283.3081,-0.0001767308
283.4081,-0.0001766912
283.5081,-0.0001766309
283.6081,-0.0001765528
283.7081,-0.0001764916
283.8081,-0.0001764256
283.9081,-0.0001763475
284.0081,-0.0001762768
284.1081,-0.0001761676
284.2081,-0.0001760932
284.3081,-0.000176031
284.4081,-0.0001759538
284.5081,-0.0001758512
284.6082,-0.0001757645
284.7082,-0.0001757269
284.8082,-0.000175644
284.9082,-0.0001755762
285.0082,-0.0001754801
285.1082,-0.0001753878
285.2082,-0.000175337
285.3082,-0.0001753003
285.4082,-0.0001751967
285.5082,-0.000175095
285.6082,-0.000175046
285.7082,-0.0001749716
285.8082,-0.0001748821
285.9082,-0.0001748332
286.0082,-0.0001747352
286.1082,-0.0001746476
286.2083,-0.0001746363
286.3083,-0.0001745478
286.4083,-0.0001744499
286.5083,-0.0001744047
286.6083,-0.0001743435
286.7083,-0.00017427
286.8083,-0.000174189
286.9083,-0.0001741306
287.0083,-0.0001740383
287.1083,-0.0001739866
287.2083,-0.000173915
287.3083,-0.0001738726
287.4083,-0.0001738359
287.5083,-0.0001737596
287.6083,-0.0001736268
287.7083,-0.0001735609
287.8083,-0.0001734969
287.9084,-0.0001734196
288.0084,-0.0001733697
288.1084,-0.0001732897
288.2084,-0.0001731823
288.3084,-0.0001731201
288.4084,-0.0001730702
288.5084,-0.0001730005
288.6084,-0.0001729148
288.7084,-0.0001728951
288.8084,-0.0001728216
288.9084,-0.0001727434
289.0084,-0.0001726596
289.1084,-0.0001725975
289.2084,-0.0001724788
289.3084,-0.0001724638
289.4084,-0.0001723903
289.5085,-0.0001723008
289.6085,-0.0001722396
289.7085,-0.0001721568
289.8085,-0.0001720871
289.9085,-0.0001720221
290.0085,-0.0001719468
290.1085,-0.0001719016
290.2085,-0.0001718573
290.3085,-0.0001717697
290.4085,-0.0001716774
290.5085,-0.0001716162
290.6085,-0.0001715559
290.7085,-0.0001714947
290.8085,-0.0001714439
290.9085,-0.0001713563
291.0085,-0.0001712762
291.1086,-0.0001712339
291.2086,-0.0001711642
291.3086,-0.0001710709
291.4086,-0.0001709966
291.5086,-0.000170957
291.6086,-0.0001708826
291.7086,-0.0001707912
291.8086,-0.000170714
291.9086,-0.0001706679
292.0086,-0.0001706199
292.1086,-0.0001705323
292.2086,-0.0001704183
292.3086,-0.0001703656
292.4086,-0.000170326
292.5086,-0.0001702573
292.6086,-0.0001701744
292.7086,-0.0001700897
292.8087,-0.0001700077
292.9087,-0.0001699578
293.0087,-0.0001699135
293.1087,-0.0001698382
293.2087,-0.0001697638
293.3087,-0.0001696923
293.4087,-0.0001696273
293.5087,-0.0001695764
293.6087,-0.0001694992
293.7087,-0.0001694389
293.8087,-0.0001693692
293.9087,-0.0001692986
294.0087,-0.0001692383
294.1087,-0.000169162
294.2087,-0.0001691055
294.3087,-0.0001690603
294.4088,-0.0001689634
294.5088,-0.0001688955
294.6088,-0.0001688645
294.7088,-0.0001688023
294.8088,-0.0001687505
294.9088,-0.0001686535
295.0088,-0.0001685885
295.1088,-0.0001685283
295.2088,-0.0001684708
295.3088,-0.0001684068
295.4088,-0.0001683333
295.5088,-0.0001683013
295.6088,-0.0001682448
295.7088,-0.000168161
295.8088,-0.0001681167
295.9088,-0.0001680188
296.0089,-0.0001679792
296.1089,-0.0001679143
296.2089,-0.0001678257
296.3089,-0.0001677419
296.4089,-0.0001676873
296.5089,-0.0001676383
296.6089,-0.0001675536
296.7089,-0.0001674961
296.8089,-0.0001674067
296.9089,-0.0001673247
297.0089,-0.0001672701
297.1089,-0.0001672174
297.2089,-0.0001671194
297.3089,-0.0001670695
297.4089,-0.0001669914
297.5089,-0.000166949
297.6089,-0.0001669094
297.709,-0.0001667964
297.809,-0.0001667126
297.909,-0.0001666599
298.009,-0.0001666194
298.109,-0.0001665327
298.209,-0.0001664687
298.309,-0.0001664
298.409,-0.00016635
298.509,-0.0001662935
298.609,-0.0001662126
298.709,-0.000166125
298.809,-0.000166076
298.909,-0.0001660477
299.009,-0.0001659733
299.109,-0.0001658839
299.209,-0.0001658208
299.3091,-0.0001657718
299.4091,-0.000165689
299.5091,-0.000165656
299.6091,-0.0001655844
299.7091,-0.0001655063
299.8091,-0.0001654281
299.9091,-0.0001653838
300.0091,-0.0001653038
300.1091,-0.0001652548
300.2091,-0.0001651823
300.3091,-0.0001651013
300.4091,-0.0001650551
300.5091,-0.0001649987
300.6091,-0.0001649186
300.7091,-0.0001648678
300.8091,-0.0001647999
300.9091,-0.000164735
301.0092,-0.0001647095
301.1092,-0.000164605
301.2092,-0.0001645269
301.3092,-0.0001644713
301.4092,-0.0001644402
301.5092,-0.0001643413
301.6092,-0.0001642895
301.7092,-0.0001642368
301.8092,-0.0001641633
301.9092,-0.0001641002
302.0092,-0.0001640597
302.1092,-0.0001639722
302.2092,-0.0001639242
302.3092,-0.0001638667
302.4092,-0.0001637914
302.5092,-0.0001637443
302.6093,-0.0001636642
302.7093,-0.0001636105
302.8093,-0.0001635371
302.9093,-0.0001634815
303.0093,-0.0001634071
303.1093,-0.0001633572
303.2093,-0.0001633111
303.3093,-0.0001632536
303.4093,-0.0001631566
303.5093,-0.0001631161
303.6093,-0.0001630756
303.7093,-0.0001629946
303.8093,-0.0001629137
303.9093,-0.0001628374
304.0093,-0.0001627112
304.1093,-0.0001627281
304.2094,-0.0001626566
304.3094,-0.0001625775
304.4094,-0.0001625295
304.5094,-0.0001625002
304.6094,-0.0001624089
304.7094,-0.0001623486
304.8094,-0.0001623288
304.9094,-0.0001622206
305.0094,-0.0001621641
305.1094,-0.0001621217
305.2094,-0.0001620435
305.3094,-0.0001619889
305.4094,-0.000161922
305.5094,-0.0001618571
305.6094,-0.0001617836
305.7094,-0.0001617403
305.8094,-0.0001616772
305.9095,-0.0001616056
306.0095,-0.000161551
306.1095,-0.0001614803
306.2095,-0.0001614267
306.3095,-0.000161373
306.4095,-0.0001613193
306.5095,-0.000161211
306.6095,-0.0001611799
306.7095,-0.0001611545
306.8095,-0.0001610519
306.9095,-0.0001609991
307.0095,-0.000160952
307.1095,-0.0001609012
307.2095,-0.000160839
307.3095,-0.0001607609
307.4095,-0.0001606921
307.5096,-0.0001606554
307.6096,-0.0001606215
307.7096,-0.0001605282
307.8096,-0.0001604652
307.9096,-0.0001604021
308.0096,-0.0001603531
308.1096,-0.000160323
308.2096,-0.0001602335
308.3096,-0.0001601403
308.4096,-0.0001601186
308.5096,-0.0001600734
308.6096,-0.000159951
308.7096,-0.0001599133
308.8096,-0.0001599114
308.9096,-0.0001598587
309.0096,-0.0001597334
309.1096,-0.0001596958
309.2097,-0.0001596458
309.3097,-0.0001595686
309.4097,-0.0001595319
309.5097,-0.0001594754
309.6097,-0.0001594048
309.7097,-0.0001593408
309.8097,-0.0001592729
309.9097,-0.0001592258
310.0097,-0.0001591967
310.1097,-0.0001591128
310.2097,-0.0001590196
310.3097,-0.0001589706
310.4097,-0.0001589367
310.5097,-0.0001588444
310.6097,-0.0001588124
310.7097,-0.000158739
310.8098,-0.0001586438
310.9098,-0.0001586137
311.0098,-0.0001585789
311.1098,-0.0001585016
311.2098,-0.0001584329
311.3098,-0.0001583924
311.4098,-0.0001583086
311.5098,-0.0001582785
311.6098,-0.0001582201
311.7098,-0.0001581626
311.8098,-0.0001580977
311.9098,-0.000158075
312.0098,-0.0001580101
312.1098,-0.0001579555
312.2098,-0.0001578848
312.3098,-0.0001578453
312.4099,-0.0001577812
312.5099,-0.0001577407
312.6099,-0.0001577012
312.7099,-0.0001576127
312.8099,-0.0001575402
312.9099,-0.0001574893
313.0099,-0.00015743
313.1099,-0.0001573725
313.2099,-0.000157284
313.3099,-0.000157219
313.4099,-0.0001572115
313.5099,-0.0001571653
313.6099,-0.000157026
313.7099,-0.0001569591
313.8099,-0.0001569073
313.9099,-0.0001568461
314.0099,-0.0001567971
314.11,-0.0001567274
314.21,-0.0001566286
314.31,-0.0001566144
314.41,-0.0001565796
314.51,-0.000156509
314.61,-0.0001564242
314.71,-0.000156395
314.81,-0.0001563036
314.91,-0.0001562425
315.01,-0.0001561954
315.11,-0.0001561257
315.21,-0.0001560635
315.31,-0.0001560268
315.41,-0.0001559486
315.51,-0.0001559015
315.61,-0.0001558413
315.7101,-0.0001557735
315.8101,-0.000155699
315.9101,-0.0001557019
316.0101,-0.0001556605
316.1101,-0.0001555474
316.2101,-0.0001554947
316.3101,-0.0001554505
316.4101,-0.0001553779
316.5101,-0.0001553544
316.6101,-0.0001552612
316.7101,-0.0001551792
316.8101,-0.0001551529
316.9101,-0.0001551152
317.0101,-0.0001550285
317.1101,-0.0001549655
317.2101,-0.0001549259
317.3102,-0.0001548327
317.4102,-0.0001548044
317.5102,-0.0001547253
317.6102,-0.0001546462
317.7102,-0.000154617
317.8102,-0.0001545737
317.9102,-0.0001544644
318.0102,-0.0001544475
318.1102,-0.0001544192
318.2102,-0.0001543307
318.3102,-0.0001542554
318.4102,-0.0001542554
318.5102,-0.0001542017
318.6102,-0.0001541245
318.7102,-0.0001540934
318.8102,-0.0001540247
318.9102,-0.0001539437
319.0103,-0.0001539173
319.1103,-0.000153841
319.2103,-0.0001537826
319.3103,-0.0001537421
319.4103,-0.0001537092
319.5103,-0.0001536046
319.6103,-0.0001535585
319.7103,-0.0001535237
319.8103,-0.0001534606
319.9103,-0.000153389
320.0103,-0.0001533193
320.1103,-0.0001532863
320.2103,-0.0001532185
320.3103,-0.0001531762
320.4103,-0.0001531084
320.5103,-0.0001530377
320.6104,-0.0001530151
320.7104,-0.0001529454
320.8104,-0.0001528965
320.9104,-0.0001528305
321.0104,-0.00015279
321.1104,-0.0001527354
321.2104,-0.0001526676
321.3104,-0.0001526375
321.4104,-0.0001525725
321.5104,-0.0001525132
321.6104,-0.0001524614
321.7104,-0.0001523955
321.8104,-0.0001523587
321.9104,-0.00015229
322.0104,-0.000152226
322.1104,-0.0001521826
322.2104,-0.0001521299
322.3105,-0.0001520536
322.4105,-0.0001520207
322.5105,-0.0001519792
322.6105,-0.0001518935
322.7105,-0.000151837
322.8105,-0.0001518022
322.9105,-0.0001517457
323.0105,-0.0001516769
323.1105,-0.0001516167
323.2105,-0.0001515912
323.3105,-0.0001515197
323.4105,-0.0001514726
323.5105,-0.0001513953
323.6105,-0.0001513643
323.7105,-0.0001513087
323.8105,-0.0001512428
323.9106,-0.0001511562
324.0106,-0.0001511731
324.1106,-0.0001511119
324.2106,-0.0001510121
324.3106,-0.0001509904
324.4106,-0.0001509574
324.5106,-0.0001508746
324.6106,-0.0001508218
324.7106,-0.0001507851
324.8106,-0.0001507229
324.9106,-0.0001506985
325.0106,-0.0001506203
325.1106,-0.0001505553
325.2106,-0.0001504997
325.3106,-0.0001504687
325.4106,-0.0001503755
325.5107,-0.0001503237
325.6107,-0.0001502907
325.7107,-0.0001502248
325.8107,-0.0001501636
325.9107,-0.0001501278
326.0107,-0.0001500374
326.1107,-0.0001500025
326.2107,-0.0001499639
326.3107,-0.0001499489
326.4107,-0.0001498443
326.5107,-0.000149817
326.6107,-0.0001497888
326.7107,-0.0001497172
326.8107,-0.0001496682
326.9107,-0.0001496098
327.0107,-0.0001495627
327.1107,-0.00014951
327.2108,-0.0001494375
327.3108,-0.0001493744
327.4108,-0.0001493424
327.5108,-0.0001493085
327.6108,-0.0001491983
327.7108,-0.0001491465
327.8108,-0.0001491314
327.9108,-0.000149058
328.0108,-0.0001490109
328.1108,-0.0001489591
328.2108,-0.0001488885
328.3108,-0.0001488611
328.4108,-0.000148831
328.5108,-0.0001487481
328.6108,-0.0001486851
328.7108,-0.0001486474
328.8109,-0.0001485711
328.9109,-0.0001485532
329.0109,-0.0001485071
329.1109,-0.0001484289
329.2109,-0.0001483884
329.3109,-0.0001483564
329.4109,-0.0001482999
329.5109,-0.0001482575
329.6109,-0.0001481982
329.7109,-0.0001481275
329.8109,-0.0001480616
329.9109,-0.00014804
330.0109,-0.0001479985
330.1109,-0.0001479288
330.2109,-0.0001478723
330.3109,-0.0001478375
330.4109,-0.0001477753
330.511,-0.0001477499
330.611,-0.0001476793
330.711,-0.0001476058
330.811,-0.0001475729
330.911,-0.0001475361
331.011,-0.0001474664
331.111,-0.0001474391
331.211,-0.0001473845
331.311,-0.0001473035
331.411,-0.000147263
331.511,-0.0001472385
331.611,-0.0001471688
331.711,-0.0001471246
331.811,-0.0001470672
331.911,-0.0001470078
332.011,-0.0001469767
332.1111,-0.0001469362
332.2111,-0.0001468628
332.3111,-0.0001468204
332.4111,-0.0001467799
332.5111,-0.0001467262
332.6111,-0.0001466707
332.7111,-0.0001466302
332.8111,-0.0001465841
332.9111,-0.0001465435
333.0111,-0.0001464861
333.1111,-0.0001464004
333.2111,-0.0001463401
333.3111,-0.0001463213
333.4111,-0.0001462686
333.5111,-0.0001461979
333.6111,-0.0001461782
333.7112,-0.0001461339
333.8112,-0.0001460586
333.9112,-0.000146019
334.0112,-0.0001459625
334.1112,-0.0001458711
334.2112,-0.0001458467
334.3112,-0.0001458137
334.4112,-0.0001457629
334.5112,-0.0001456913
334.6112,-0.0001456357
334.7112,-0.0001456244
334.8112,-0.0001455896
334.9112,-0.0001455359
335.0112,-0.0001454408
335.1112,-0.0001454003
335.2112,-0.0001453739
335.3112,-0.0001452967
335.4113,-0.0001452355
335.5113,-0.0001452044
335.6113,-0.0001451197
335.7113,-0.0001451263
335.8113,-0.000145081
335.9113,-0.0001449784
336.0113,-0.0001449332
336.1113,-0.0001448842
336.2113,-0.0001448654
336.3113,-0.0001448465
336.4113,-0.0001447609
336.5113,-0.0001447043
336.6113,-0.0001446328
336.7113,-0.0001446102
336.8113,-0.0001445282
336.9113,-0.0001444802
337.0114,-0.0001445348
337.1114,-0.0001445207
337.2114,-0.000144371
337.3114,-0.0001443107
337.4114,-0.0001443333
337.5114,-0.0001442269
337.6114,-0.0001441666
337.7114,-0.000144128
337.8114,-0.0001441139
337.9114,-0.0001440828
338.0114,-0.000144047
338.1114,-0.0001439321
338.2114,-0.0001438634
338.3114,-0.0001438539
338.4114,-0.000143789
338.5114,-0.0001437212
338.6115,-0.000143675
338.7115,-0.0001435912
338.8115,-0.0001435743
338.9115,-0.0001435309
339.0115,-0.0001434415
339.1115,-0.0001433888
339.2115,-0.0001433464
339.3115,-0.0001432936
339.4115,-0.0001432692
339.5115,-0.0001431985
339.6115,-0.0001431477
339.7115,-0.0001431006
339.8115,-0.0001430667
339.9115,-0.0001429998
340.0115,-0.0001429574
340.1115,-0.0001428896
340.2115,-0.0001428425
340.3116,-0.0001427851
340.4116,-0.0001427615
340.5116,-0.0001427032
340.6116,-0.0001426363
340.7116,-0.000142577
340.8116,-0.0001425534
340.9116,-0.0001424922
341.0116,-0.000142463
341.1116,-0.0001423877
341.2116,-0.0001423227
341.3116,-0.0001423293
341.4116,-0.0001422643
341.5116,-0.000142172
341.6116,-0.0001421428
341.7116,-0.000142107
341.8116,-0.000142043
341.9117,-0.0001420242
342.0117,-0.0001419592
342.1117,-0.0001418999
342.2117,-0.0001418603
342.3117,-0.0001418029
342.4117,-0.0001417501
342.5117,-0.0001417341
342.6117,-0.000141688
342.7117,-0.0001416192
342.8117,-0.0001415768
342.9117,-0.0001415731
343.0117,-0.0001415053
343.1117,-0.0001414478
343.2117,-0.0001413942
343.3117,-0.0001413537
343.4117,-0.0001413235
343.5117,-0.0001412802
343.6118,-0.0001411823
343.7118,-0.0001411484
343.8118,-0.0001411239
343.9118,-0.0001410759
344.0118,-0.0001410222
344.1118,-0.0001409638
344.2118,-0.0001408979
344.3118,-0.0001408838
344.4118,-0.0001408602
344.5118,-0.0001407689
344.6118,-0.0001407255
344.7118,-0.0001406643
344.8118,-0.0001406106
344.9118,-0.0001405739
345.0118,-0.0001405409
345.1118,-0.000140444
345.2119,-0.0001404298
345.3119,-0.0001404572
345.4119,-0.0001403667
345.5119,-0.000140282
345.6119,-0.0001402434
345.7119,-0.0001402255
345.8119,-0.0001401699
345.9119,-0.0001401162
346.0119,-0.0001400748
346.1119,-0.0001399938
346.2119,-0.0001399477
346.3119,-0.000139926
346.4119,-0.0001398601
346.5119,-0.0001398271
346.6119,-0.000139781
346.7119,-0.0001397292
346.812,-0.0001396943
346.912,-0.0001396369
347.012,-0.0001395795
347.112,-0.000139539
347.212,-0.0001395154
347.312,-0.0001394457
347.412,-0.000139392
347.512,-0.0001393798
347.612,-0.0001393186
347.712,-0.0001392875
347.812,-0.0001392451
347.912,-0.0001391519
348.012,-0.000139118
348.112,-0.0001391867
348.212,-0.0001391378
348.312,-0.0001390003
348.412,-0.0001389654
348.5121,-0.0001389466
348.6121,-0.0001388778
348.7121,-0.0001388703
348.8121,-0.0001388016
348.9121,-0.0001387234
349.0121,-0.0001387083
349.1121,-0.0001386792
349.2121,-0.0001385887
349.3121,-0.0001385473
349.4121,-0.0001385219
349.5121,-0.0001384673
349.6121,-0.0001384409
349.7121,-0.0001383948
349.8121,-0.0001383025
349.9121,-0.0001382808
350.0121,-0.0001382516
350.1122,-0.0001381725
350.2122,-0.0001381348
350.3122,-0.0001380858
350.4122,-0.0001380218
350.5122,-0.0001379945
350.6122,-0.0001379606
350.7122,-0.0001378975
350.8122,-0.0001378448
350.9122,-0.0001378231
351.0122,-0.0001377544
351.1122,-0.0001377308
351.2122,-0.00013768
351.3122,-0.0001376319
351.4122,-0.0001375632
351.5122,-0.0001375472
351.6122,-0.0001375048
351.7122,-0.0001374624
351.8123,-0.0001373928
351.9123,-0.0001373664
352.0123,-0.0001372873
352.1123,-0.0001372816
352.2123,-0.0001372383
352.3123,-0.0001371535
352.4123,-0.00013713
352.5123,-0.0001370886
352.6123,-0.0001370227
352.7123,-0.0001369981
352.8123,-0.0001369209
352.9123,-0.0001368767
353.0123,-0.000136855
353.1123,-0.0001368324
353.2123,-0.0001367373
353.3123,-0.0001367137
353.4124,-0.0001366544
353.5124,-0.0001366045
353.6124,-0.0001365678
353.7124,-0.0001365216
353.8124,-0.000136483
353.9124,-0.0001364152
354.0124,-0.0001364162
354.1124,-0.0001363606
354.2124,-0.0001362872
354.3124,-0.0001362692
354.4124,-0.0001362062
354.5124,-0.0001361497
354.6124,-0.0001361384
354.7124,-0.0001360451
354.8124,-0.0001360018
354.9124,-0.0001360395
355.0125,-0.0001359839
355.1125,-0.0001358417
355.2125,-0.0001358342
355.3125,-0.0001358012
355.4125,-0.0001357381
355.5125,-0.0001357127
355.6125,-0.0001356628
355.7125,-0.0001355846
355.8125,-0.0001355667
355.9125,-0.0001355535
356.0125,-0.0001354679
356.1125,-0.0001354189
356.2125,-0.0001353577
356.3125,-0.0001353238
356.4125,-0.0001353153
356.5125,-0.0001352494
356.6125,-0.0001351806
356.7126,-0.0001352042
356.8126,-0.0001351533
356.9126,-0.0001350714
357.0126,-0.0001350149
357.1126,-0.0001349932
357.2126,-0.0001349621
357.3126,-0.0001348745
357.4126,-0.000134852
357.5126,-0.0001347917
357.6126,-0.0001347578
357.7126,-0.0001347465
357.8126,-0.0001346476
357.9126,-0.0001345939
358.0126,-0.0001345732
358.1126,-0.0001344997
358.2126,-0.0001344376
358.3127,-0.0001344432
358.4127,-0.000134415
358.5127,-0.0001343133
358.6127,-0.0001342747
358.7127,-0.0001342492
358.8127,-0.000134188
358.9127,-0.0001341767
359.0127,-0.0001341042
359.1127,-0.0001340166
359.2127,-0.0001340298
359.3127,-0.0001339921
359.4127,-0.0001339102
359.5127,-0.0001338857
359.6127,-0.0001338415
359.7127,-0.0001337916
359.8127,-0.0001337388
359.9128,-0.0001337049
360.0128,-0.0001336682
360.1128,-0.0001336296
360.2128,-0.0001335985
360.3128,-0.0001335241
360.4128,-0.0001334808
360.5128,-0.0001334572
360.6128,-0.000133396
360.7128,-0.0001333508
360.8128,-0.0001333169
360.9128,-0.0001332661
361.0128,-0.0001332369
361.1128,-0.0001332039
361.2128,-0.0001331521
361.3128,-0.000133074
361.4128,-0.0001330655
361.5128,-0.0001330551
361.6129,-0.0001329685
361.7129,-0.000132928
361.8129,-0.0001328677
361.9129,-0.0001328319
362.0129,-0.0001328112
362.1129,-0.0001327359
362.2129,-0.0001326822
362.3129,-0.0001326483
362.4129,-0.000132653
362.5129,-0.0001325777
362.6129,-0.0001325231
362.7129,-0.0001324976
362.8129,-0.0001324449
362.9129,-0.0001324458
363.0129,-0.0001323931
363.1129,-0.0001323017
363.213,-0.0001322801
363.313,-0.0001322641
363.413,-0.0001321859
363.513,-0.0001321256
363.613,-0.0001320965
363.713,-0.0001320513
363.813,-0.0001320136
363.913,-0.0001320211
364.013,-0.0001319364
364.113,-0.0001318742
364.213,-0.0001318751
364.313,-0.0001318337
364.413,-0.0001317386
364.513,-0.0001316981
364.613,-0.000131668
364.713,-0.0001316143
364.813,-0.0001316011
364.9131,-0.000131522
365.0131,-0.0001314636
365.1131,-0.0001314457
365.2131,-0.0001314005
365.3131,-0.0001313346
365.4131,-0.0001313007
365.5131,-0.0001312903
365.6131,-0.0001312206
365.7131,-0.000131183
365.8131,-0.0001311349
365.9131,-0.0001310813
366.0131,-0.0001310502
366.1131,-0.0001310153
366.2131,-0.0001309494
366.3131,-0.0001309287
366.4131,-0.000130908
366.5132,-0.0001308345
366.6132,-0.0001307818
366.7132,-0.0001307554
366.8132,-0.0001307102
366.9132,-0.0001306829
367.0132,-0.0001306603
367.1132,-0.0001305708
367.2132,-0.000130552
367.3132,-0.0001305398
367.4132,-0.0001304955
367.5132,-0.0001304625
367.6132,-0.0001304117
367.7132,-0.0001303476
367.8132,-0.0001303203
367.9132,-0.0001302977
368.0132,-0.0001302243
368.1133,-0.0001301697
368.2133,-0.0001301499
368.3133,-0.000130083
368.4133,-0.0001300793
368.5133,-0.0001300821
368.6133,-0.0001299681
368.7133,-0.0001299484
368.8133,-0.0001299173
368.9133,-0.0001298363
369.0133,-0.0001298109
369.1133,-0.0001297845
369.2133,-0.0001297242
369.3133,-0.0001296903
369.4133,-0.0001296414
369.5133,-0.0001296065
369.6133,-0.0001295378
369.7133,-0.0001295274
369.8134,-0.000129485
369.9134,-0.0001294106
370.0134,-0.0001294163
370.1134,-0.0001293701
370.2134,-0.0001293004
370.3134,-0.000129291
370.4134,-0.0001292232
370.5134,-0.0001291696
370.6134,-0.0001291884
370.7134,-0.0001291027
370.8134,-0.0001290387
370.9134,-0.0001290189
371.0134,-0.0001289878
371.1134,-0.0001289256
371.2134,-0.0001288908
371.3134,-0.0001288399
371.4135,-0.0001288032
371.5135,-0.000128807
371.6135,-0.0001287316
371.7135,-0.0001286638
371.8135,-0.0001286196
371.9135,-0.0001286252
372.0135,-0.0001285772
372.1135,-0.0001285329
372.2135,-0.0001284774
372.3135,-0.0001284463
372.4135,-0.0001284274
372.5135,-0.0001283813
372.6135,-0.0001282985
372.7135,-0.0001283399
372.8135,-0.000128305
372.9135,-0.0001282325
373.0135,-0.0001281741
373.1136,-0.0001281619
373.2136,-0.0001281242
373.3136,-0.0001280658
373.4136,-0.0001280253
373.5136,-0.0001279839
373.6136,-0.000127934
373.7136,-0.0001279415
373.8136,-0.0001278982
373.9136,-0.0001278351
374.0136,-0.0001278087
374.1136,-0.0001277758
374.2136,-0.0001277315
374.3136,-0.0001277118
374.4136,-0.0001276722
374.5136,-0.0001276166
374.6136,-0.0001276025
374.7137,-0.0001275601
374.8137,-0.0001275432
374.9137,-0.0001275253
375.0137,-0.0001274735
375.1137,-0.0001274189
375.2137,-0.000127401
375.3137,-0.0001273652
375.4137,-0.0001273266
375.5137,-0.0001273078
375.6137,-0.000127288
375.7137,-0.0001271957
375.8137,-0.0001271693
375.9137,-0.0001271863
376.0137,-0.0001271137
376.1137,-0.0001270836
376.2137,-0.0001270186
376.3138,-0.0001269744
376.4138,-0.0001269499
376.5138,-0.0001269348
376.6138,-0.0001268708
376.7138,-0.0001268077
376.8138,-0.0001267898
376.9138,-0.0001267738
377.0138,-0.0001267145
377.1138,-0.0001266881
377.2138,-0.000126609
377.3138,-0.0001265704
377.4138,-0.000126561
377.5138,-0.0001265223
377.6138,-0.0001264687
377.7138,-0.000126431
377.8138,-0.0001264018
377.9138,-0.0001263283
378.0139,-0.0001263302
378.1139,-0.0001262982
378.2139,-0.0001262191
378.3139,-0.0001261871
378.4139,-0.0001261626
378.5139,-0.0001261146
378.6139,-0.0001261089
378.7139,-0.0001260534
378.8139,-0.0001259997
378.9139,-0.0001259592
379.0139,-0.0001259441
379.1139,-0.0001258716
379.2139,-0.00012585
379.3139,-0.0001258339
379.4139,-0.0001257793
379.5139,-0.0001257322
379.614,-0.000125719
379.714,-0.0001256559
379.814,-0.0001256531
379.914,-0.0001256164
380.014,-0.0001255307
380.114,-0.0001254968
380.214,-0.000125494
380.314,-0.0001254582
380.414,-0.0001253988
380.514,-0.0001253781
380.614,-0.0001253292
380.714,-0.0001252962
380.814,-0.0001252557
380.914,-0.0001252265
381.014,-0.000125154
381.114,-0.0001251559
381.2141,-0.0001250862
381.3141,-0.000125057
381.4141,-0.000125074
381.5141,-0.0001250175
381.6141,-0.0001249383
381.7141,-0.0001249167
381.8141,-0.0001248922
381.9141,-0.0001248395
382.0141,-0.0001248187
382.1141,-0.0001247811
382.2141,-0.0001247331
382.3141,-0.0001247133
382.4141,-0.0001246747
382.5141,-0.0001245692
382.6141,-0.0001245683
382.7141,-0.0001245513
382.8141,-0.0001244986
382.9142,-0.0001244581
383.0142,-0.0001244279
383.1142,-0.0001243507
383.2142,-0.0001243385
383.3142,-0.000124314
383.4142,-0.0001242556
383.5142,-0.0001242151
383.6142,-0.0001242038
383.7142,-0.0001241529
383.8142,-0.0001241049
383.9142,-0.0001240814
384.0142,-0.0001240635
384.1142,-0.0001239957
384.2142,-0.0001239966
384.3142,-0.0001239382
384.4142,-0.0001238827
384.5143,-0.0001238789
384.6143,-0.0001238431
384.7143,-0.0001237706
384.8143,-0.0001237536
384.9143,-0.0001237263
385.0143,-0.0001236557
385.1143,-0.0001236359
385.2143,-0.0001236039
385.3143,-0.0001235192
385.4143,-0.0001234796
385.5143,-0.0001235135
385.6143,-0.0001234758
385.7143,-0.0001234099
385.8143,-0.0001233487
385.9143,-0.0001233092
386.0143,-0.0001232837
386.1143,-0.0001232762
386.2144,-0.0001232197
386.3144,-0.0001231604
386.4144,-0.0001231594
386.5144,-0.0001231114
386.6144,-0.0001230615
386.7144,-0.0001230276
386.8144,-0.0001230106
386.9144,-0.0001229814
387.0144,-0.0001229315
387.1144,-0.0001228938
387.2144,-0.0001228213
387.3144,-0.0001228355
387.4144,-0.0001227912
387.5144,-0.0001227017
387.6144,-0.0001227008
387.7144,-0.0001227008
387.8145,-0.0001225963
387.9145,-0.0001226
388.0145,-0.0001225624
388.1145,-0.0001224983
388.2145,-0.000122487
388.3145,-0.0001224701
388.4145,-0.0001223684
388.5145,-0.0001223561
388.6145,-0.0001223373
388.7145,-0.000122277
388.8145,-0.0001222544
388.9145,-0.0001222535
389.0145,-0.0001221678
389.1145,-0.0001221423
389.2145,-0.0001221329
389.3145,-0.0001220614
389.4146,-0.0001220152
389.5146,-0.0001219936
389.6146,-0.0001219917
389.7146,-0.0001219201
389.8146,-0.0001218966
389.9146,-0.0001218466
390.0146,-0.0001218071
390.1146,-0.0001218193
390.2146,-0.0001217431
390.3146,-0.0001217054
390.4146,-0.0001216979
390.5146,-0.000121663
390.6146,-0.0001216159
390.7146,-0.0001215688
390.8146,-0.0001215274
390.9146,-0.0001214652
391.0146,-0.0001214596
391.1147,-0.0001214012
391.2147,-0.0001213654
391.3147,-0.0001213532
391.4147,-0.0001212901
391.5147,-0.0001212289
391.6147,-0.0001212562
391.7147,-0.0001212411
391.8147,-0.0001211375
391.9147,-0.0001211177
392.0147,-0.0001211404
392.1147,-0.0001210999
392.2147,-0.0001210367
392.3147,-0.0001210085
392.4147,-0.0001209784
392.5147,-0.0001209285
392.6147,-0.000120904
392.7148,-0.0001208738
392.8148,-0.0001208249
392.9148,-0.0001207702
393.0148,-0.0001207571
393.1148,-0.0001207674
393.2148,-0.0001207175
393.3148,-0.0001206666
393.4148,-0.0001206252
393.5148,-0.0001206102
393.6148,-0.0001205574
393.7148,-0.0001205018
393.8148,-0.0001205037
393.9148,-0.0001204708
394.0148,-0.0001203973
394.1148,-0.0001203804
394.2148,-0.00012037
394.3148,-0.0001202994
394.4149,-0.0001202476
394.5149,-0.0001202777
394.6149,-0.000120241
394.7149,-0.0001201713
394.8149,-0.0001201534
394.9149,-0.0001201139
395.0149,-0.0001200677
395.1149,-0.000120079
395.2149,-0.0001200112
395.3149,-0.000119933
395.4149,-0.0001199735
395.5149,-0.0001199566
395.6149,-0.0001198907
395.7149,-0.000119821
395.8149,-0.0001198144
395.9149,-0.0001197466
396.015,-0.0001197334
396.115,-0.0001196967
396.215,-0.0001196317
396.315,-0.0001196157
396.415,-0.0001196091
396.515,-0.0001195177
396.615,-0.0001194838
396.715,-0.0001194754
396.815,-0.000119416
396.915,-0.0001193784
397.015,-0.0001193529
397.115,-0.000119303
397.215,-0.0001192861
397.315,-0.0001192362
397.415,-0.0001191702
397.515,-0.000119174
397.6151,-0.0001191608
397.7151,-0.0001190544
397.8151,-0.0001190516
397.9151,-0.0001190488
398.0151,-0.0001190299
398.1151,-0.0001189583
398.2151,-0.0001189395
398.3151,-0.0001189169
398.4151,-0.0001188783
398.5151,-0.0001188538
398.6151,-0.0001187747
398.7151,-0.0001187418
398.8151,-0.0001187596
398.9151,-0.0001186947
399.0151,-0.0001186269
399.1151,-0.0001185958
399.2151,-0.0001185572
399.3152,-0.0001185233
399.4152,-0.0001185299
399.5152,-0.0001184649
399.6152,-0.0001184112
399.7152,-0.0001183924
399.8152,-0.0001183585
399.9152,-0.0001183057
400.0152,-0.0001182709
400.1152,-0.0001182304
400.2152,-0.0001181937
400.3152,-0.0001181635
400.4152,-0.0001181268
400.5152,-0.0001180825
400.6152,-0.0001180656
400.7152,-0.0001180072
400.8152,-0.0001179545
400.9153,-0.0001179479
401.0153,-0.0001179319
401.1153,-0.0001178612
401.2153,-0.0001178311
401.3153,-0.0001178735
401.4153,-0.0001178367
401.5153,-0.0001177831
401.6153,-0.0001177322
401.7153,-0.0001177106
401.8153,-0.0001176785
401.9153,-0.0001176635
402.0153,-0.0001175844
402.1153,-0.0001175646
402.2153,-0.0001175533
402.3153,-0.0001174893
402.4153,-0.0001174751
402.5154,-0.0001174214
402.6154,-0.0001173847
402.7154,-0.0001173659
402.8154,-0.0001173489
402.9154,-0.0001173
403.0154,-0.0001172369
403.1154,-0.0001172227
403.2154,-0.0001172227
403.3154,-0.0001171512
403.4154,-0.0001171182
403.5154,-0.0001170758
403.6154,-0.0001170834
403.7154,-0.000117073
403.8154,-0.000117008
403.9154,-0.0001169534
404.0154,-0.0001169129
404.1154,-0.0001168903
404.2155,-0.0001168574
404.3155,-0.0001168649
404.4155,-0.0001168225
404.5155,-0.0001167349
404.6155,-0.00011675
404.7155,-0.0001167133
404.8155,-0.0001166577
404.9155,-0.0001166351
405.0155,-0.0001165833
405.1155,-0.0001165447
405.2155,-0.0001165268
405.3155,-0.000116507
405.4155,-0.0001164543
405.5155,-0.0001164063
405.6155,-0.0001164072
405.7155,-0.0001163818
405.8156,-0.0001163545
405.9156,-0.0001163121
406.0156,-0.0001162584
406.1156,-0.0001162179
406.2156,-0.0001162113
406.3156,-0.0001161445
406.4156,-0.0001160842
406.5156,-0.0001161124
406.6156,-0.0001161002
406.7156,-0.0001160154
406.8156,-0.00011599
406.9156,-0.0001159665
407.0156,-0.0001158996
407.1156,-0.0001159269
407.2156,-0.0001158582
407.3156,-0.0001158026
407.4156,-0.000115813
407.5157,-0.0001157894
407.6157,-0.0001157197
407.7157,-0.0001156745
407.8157,-0.0001156632
407.9157,-0.0001156218
408.0157,-0.0001155983
408.1157,-0.0001155596
408.2157,-0.0001155107
408.3157,-0.0001154777
408.4157,-0.0001154598
408.5157,-0.0001154174
408.6157,-0.0001154127
408.7157,-0.0001153817
408.8157,-0.0001153289
408.9157,-0.0001153176
409.0157,-0.000115295
409.1158,-0.0001152602
409.2158,-0.0001152234
409.3158,-0.0001151848
409.4158,-0.0001151641
409.5158,-0.000115101
409.6158,-0.0001151152
409.7158,-0.0001150577
409.8158,-0.0001149965
409.9158,-0.0001149569
410.0158,-0.0001149494
410.1158,-0.0001149042
410.2158,-0.000114908
410.3158,-0.000114858
410.4158,-0.0001147921
410.5158,-0.0001147761
410.6158,-0.0001147752
410.7159,-0.0001147375
410.8159,-0.0001146923
410.9159,-0.0001146556
411.0159,-0.0001146104
411.1159,-0.0001146123
411.2159,-0.0001145991
411.3159,-0.0001145482
411.4159,-0.0001145134
411.5159,-0.0001144588
411.6159,-0.0001144324
411.7159,-0.0001144371
411.8159,-0.0001143994
411.9159,-0.0001143429
412.0159,-0.0001143194
412.1159,-0.0001143326
412.2159,-0.0001142714
412.3159,-0.0001142375
412.416,-0.0001142186
412.516,-0.0001141791
412.616,-0.0001141452
412.716,-0.0001141452
412.816,-0.0001141056
412.916,-0.0001140538
413.016,-0.0001140274
413.116,-0.0001140124
413.216,-0.0001139587
413.316,-0.0001139163
413.416,-0.0001138909
413.516,-0.0001138956
413.616,-0.0001138777
413.716,-0.0001138787
413.816,-0.0001137657
413.916,-0.000113727
414.0161,-0.0001136941
414.1161,-0.0001136724
414.2161,-0.0001136197
414.3161,-0.0001135971
414.4161,-0.0001135717
414.5161,-0.0001135359
414.6161,-0.0001134897
414.7161,-0.0001134831
414.8161,-0.0001134257
414.9161,-0.000113405
415.0161,-0.0001133758
415.1161,-0.0001133381
415.2161,-0.0001133212
415.3161,-0.0001132891
415.4161,-0.0001132976
415.5161,-0.0001132618
415.6161,-0.0001131893
415.7162,-0.0001131639
415.8162,-0.0001131337
415.9162,-0.0001131083
416.0162,-0.0001130575
416.1162,-0.0001130264
416.2162,-0.000112985
416.3162,-0.0001129303
416.4162,-0.0001129124
416.5162,-0.0001129285
416.6162,-0.0001128672
416.7162,-0.0001128154
416.8162,-0.0001128324
416.9162,-0.000112758
417.0162,-0.0001127269
417.1162,-0.0001127156
417.2162,-0.0001126808
417.3163,-0.000112645
417.4163,-0.0001126318
417.5163,-0.0001125885
417.6163,-0.0001125386
417.7163,-0.0001125565
417.8163,-0.0001125037
417.9163,-0.00011245
418.0163,-0.0001124274
418.1163,-0.000112403
418.2163,-0.0001123417
418.3163,-0.0001123333
418.4163,-0.0001123126
418.5163,-0.0001122626
418.6163,-0.0001122655
418.7163,-0.0001122344
418.8163,-0.0001121732
418.9164,-0.0001121308
419.0164,-0.0001121383
419.1164,-0.0001120818
419.2164,-0.0001120564
419.3164,-0.0001120244
419.4164,-0.0001119764
419.5164,-0.0001119528
419.6164,-0.0001119425
419.7164,-0.0001118944
419.8164,-0.0001118549
419.9164,-0.000111836
420.0164,-0.0001118125
420.1164,-0.0001117532
420.2164,-0.0001117146
420.3164,-0.0001117127
420.4164,-0.000111708
420.5164,-0.0001116524
420.6165,-0.0001116015
420.7165,-0.0001115385
420.8165,-0.0001115714
420.9165,-0.0001115601
421.0165,-0.0001114819
421.1165,-0.0001114179
421.2165,-0.0001114094
421.3165,-0.0001113915
421.4165,-0.0001113445
421.5165,-0.0001113171
421.6165,-0.0001112644
421.7165,-0.0001112418
421.8165,-0.0001112314
421.9165,-0.0001111985
422.0165,-0.0001111561
422.1165,-0.0001111382
422.2166,-0.0001110619
422.3166,-0.0001110704
422.4166,-0.0001110582
422.5166,-0.0001110035
422.6166,-0.0001109386
422.7166,-0.0001109706
422.8166,-0.000110947
422.9166,-0.0001108849
423.0166,-0.0001108708
423.1166,-0.0001108209
423.2166,-0.0001107662
423.3166,-0.0001107728
423.4166,-0.0001107417
423.5166,-0.0001107107
423.6166,-0.0001106758
423.7166,-0.0001106212
423.8167,-0.0001106005
423.9167,-0.0001105807
424.0167,-0.0001105722
424.1167,-0.0001105025
424.2167,-0.0001104696
424.3167,-0.0001104385
424.4167,-0.0001104008
424.5167,-0.000110415
424.6167,-0.0001103782
424.7167,-0.0001103038
424.8167,-0.0001103199
424.9167,-0.0001102624
425.0167,-0.000110236
425.1167,-0.0001102115
425.2167,-0.000110205
425.3167,-0.0001101419
425.4167,-0.0001101089
425.5168,-0.0001101004
425.6168,-0.000110059
425.7168,-0.0001100072
425.8168,-0.0001100279
425.9168,-0.0001099516
426.0168,-0.0001099309
426.1168,-0.0001099601
426.2168,-0.0001099017
426.3168,-0.0001098801
426.4168,-0.000109833
426.5168,-0.0001098057
426.6168,-0.0001097821
426.7168,-0.0001097642
426.8168,-0.0001097153
426.9168,-0.0001096908
427.0168,-0.0001096625
427.1169,-0.0001096305
427.2169,-0.0001096371
427.3169,-0.0001095938
427.4169,-0.0001095279
427.5169,-0.000109493
427.6169,-0.0001095118
427.7169,-0.0001094732
427.8169,-0.0001094214
427.9169,-0.0001093857
428.0169,-0.0001093499
428.1169,-0.0001093423
428.2169,-0.0001093499
428.3169,-0.0001092849
428.4169,-0.0001092566
428.5169,-0.0001092209
428.6169,-0.0001091964
428.7169,-0.0001091568
428.817,-0.00010917
428.917,-0.0001091135
429.017,-0.0001090692
429.117,-0.00010904
429.217,-0.0001090212
429.317,-0.0001089675
429.417,-0.0001089779
429.517,-0.0001089336
429.617,-0.0001088526
429.717,-0.000108846
429.817,-0.0001088423
429.917,-0.0001087942
430.017,-0.0001087877
430.117,-0.0001087519
430.217,-0.0001087038
430.317,-0.000108717
430.4171,-0.0001086681
430.5171,-0.0001086219
430.6171,-0.0001086078
430.7171,-0.000108588
430.8171,-0.0001085456
430.9171,-0.000108524
431.0171,-0.0001085221
431.1171,-0.0001084449
431.2171,-0.0001084345
431.3171,-0.0001083893
431.4171,-0.0001083573
431.5171,-0.0001083545
431.6171,-0.0001083168
431.7171,-0.0001082801
431.8171,-0.0001082273
431.9171,-0.0001082151
432.0172,-0.0001081934
432.1172,-0.0001081699
432.2172,-0.0001081482
432.3172,-0.0001080908
432.4172,-0.0001081011
432.5172,-0.0001081011
432.6172,-0.000108038
432.7172,-0.0001079806
432.8172,-0.00010799
432.9172,-0.0001079891
433.0172,-0.0001079316
433.1172,-0.0001079137
433.2172,-0.0001078874
433.3172,-0.0001078553
433.4172,-0.0001078563
433.5172,-0.0001078111
433.6172,-0.0001077499
433.7173,-0.0001077612
433.8173,-0.0001077499
433.9173,-0.000107683
434.0173,-0.0001076444
434.1173,-0.0001076425
434.2173,-0.0001075973
434.3173,-0.0001075747
434.4173,-0.0001075738
434.5173,-0.0001074994
434.6173,-0.0001075041
434.7173,-0.0001074786
434.8173,-0.0001073864
434.9173,-0.0001073685
435.0173,-0.0001073666
435.1173,-0.0001073251
435.2173,-0.0001072799
435.3174,-0.0001073054
435.4174,-0.0001072555
435.5174,-0.0001072253
435.6174,-0.0001072319
435.7174,-0.0001071773
435.8174,-0.0001071246
435.9174,-0.0001071302
436.0174,-0.0001071029
436.1174,-0.0001070464
436.2174,-0.0001070125
436.3174,-0.0001069908
436.4174,-0.0001069663
436.5174,-0.0001069494
436.6174,-0.0001069372
436.7174,-0.0001068618
436.8174,-0.0001068656
436.9174,-0.0001068449
437.0175,-0.0001067921
437.1175,-0.0001067582
437.2175,-0.0001067799
437.3175,-0.0001067601
437.4175,-0.0001067177
437.5175,-0.0001066622
437.6175,-0.0001066207
437.7175,-0.0001065671
437.8175,-0.0001065981
437.9175,-0.0001065247
438.0175,-0.0001064672
438.1175,-0.0001064597
438.2175,-0.0001064418
438.3175,-0.0001064126
438.4175,-0.0001064324
438.5175,-0.0001063806
438.6176,-0.0001062723
438.7176,-0.0001062911
438.8176,-0.0001062751
438.9176,-0.0001062177
439.0176,-0.0001061979
439.1176,-0.0001061753
439.2176,-0.0001061084
439.3176,-0.0001061122
439.4176,-0.000106131
439.5176,-0.0001059917
439.6176,-0.0001060679
439.7176,-0.0001060858
439.8176,-0.0001060095
439.9176,-0.0001059502
440.0176,-0.0001059361
440.1176,-0.0001059097
440.2177,-0.0001058899
440.3177,-0.0001058626
440.4177,-0.000105809
440.5177,-0.000105776
440.6177,-0.0001057741
440.7177,-0.000105744
440.8177,-0.0001056903
440.9177,-0.0001056781
441.0177,-0.0001056404
441.1177,-0.0001056159
441.2177,-0.0001056074
441.3177,-0.0001055707
441.4177,-0.0001055349
441.5177,-0.0001055048
441.6177,-0.0001054464
441.7177,-0.0001054407
441.8177,-0.0001054228
441.9178,-0.0001054191
442.0178,-0.0001053607
442.1178,-0.0001053183
442.2178,-0.0001053098
442.3178,-0.0001052656
442.4178,-0.0001052609
442.5178,-0.0001052486
442.6178,-0.0001051912
442.7178,-0.0001051507
442.8178,-0.000105145
442.9178,-0.0001051158
443.0178,-0.0001051017
443.1178,-0.0001050678
443.2178,-0.0001050047
443.3178,-0.0001049944
443.4178,-0.0001049849
443.5179,-0.0001049322
443.6179,-0.0001049501
443.7179,-0.0001049058
443.8179,-0.0001048512
443.9179,-0.0001048475
444.0179,-0.0001048465
444.1179,-0.0001047909
444.2179,-0.0001047608
444.3179,-0.0001047316
444.4179,-0.0001047015
444.5179,-0.0001047137
444.6179,-0.0001046666
444.7179,-0.0001046045
444.8179,-0.0001045904
444.9179,-0.0001045998
445.0179,-0.0001045517
445.118,-0.000104531
445.218,-0.0001044821
445.318,-0.0001044557
445.418,-0.0001044425
445.518,-0.0001044425
445.618,-0.000104403
445.718,-0.0001043596
445.818,-0.0001043568
445.918,-0.0001043314
446.018,-0.000104306
446.118,-0.0001042965
446.218,-0.000104257
446.318,-0.0001042203
446.418,-0.0001041977
446.518,-0.0001041779
446.618,-0.0001041638
446.718,-0.000104127
446.8181,-0.0001041007
446.9181,-0.0001040875
447.0181,-0.0001040441
447.1181,-0.0001040206
447.2181,-0.000103999
447.3181,-0.0001039735
447.4181,-0.000103917
447.5181,-0.0001038643
447.6181,-0.0001039217
447.7181,-0.0001039217
447.8181,-0.0001038605
447.9181,-0.0001038181
448.0181,-0.0001038097
448.1181,-0.0001037692
448.2181,-0.0001037503
448.3181,-0.000103739
448.4182,-0.0001036712
448.5182,-0.0001036505
448.6182,-0.0001036505
448.7182,-0.0001035931
448.8182,-0.0001035874
448.9182,-0.000103545
449.0182,-0.0001035121
449.1182,-0.0001034932
449.2182,-0.0001034706
449.3182,-0.0001034405
449.4182,-0.0001034349
449.5182,-0.0001033906
449.6182,-0.0001033642
449.7182,-0.0001033087
449.8182,-0.0001033275
449.9182,-0.0001032814
450.0182,-0.000103255
450.1183,-0.0001032343
450.2183,-0.0001031938
450.3183,-0.0001031683
450.4183,-0.0001031608
450.5183,-0.0001031165
450.6183,-0.0001030855
450.7183,-0.0001030742
450.8183,-0.0001030506
450.9183,-0.0001030035
451.0183,-0.0001030082
451.1183,-0.0001029894
451.2183,-0.0001029056
451.3183,-0.0001029169
451.4183,-0.0001029169
451.5183,-0.0001028736
451.6183,-0.0001028397
451.7184,-0.0001028133
451.8184,-0.0001027596
451.9184,-0.0001027399
452.0184,-0.0001027361
452.1184,-0.0001026815
452.2184,-0.0001026476
452.3184,-0.0001025995
452.4184,-0.0001025958
452.5184,-0.0001025807
452.6184,-0.0001025788
452.7184,-0.0001025176
452.8184,-0.0001025082
452.9184,-0.0001025091
453.0184,-0.0001024686
453.1184,-0.0001024451
453.2184,-0.0001024413
453.3185,-0.0001024159
453.4185,-0.0001023829
453.5185,-0.00010235
453.6185,-0.0001023274
453.7185,-0.0001022699
453.8185,-0.0001022718
453.9185,-0.0001022276
454.0185,-0.0001021871
454.1185,-0.0001021748
454.2185,-0.0001021645
454.3185,-0.000102123
454.4185,-0.0001021042
454.5185,-0.0001020778
454.6185,-0.0001020251
454.7185,-0.0001020185
454.8185,-0.0001020157
454.9185,-0.0001019545
455.0186,-0.0001019422
455.1186,-0.000101914
455.2186,-0.0001018791
455.3186,-0.0001018819
455.4186,-0.0001018697
455.5186,-0.0001017953
455.6186,-0.0001017802
455.7186,-0.0001017878
455.8186,-0.000101751
455.9186,-0.0001017294
456.0186,-0.000101704
456.1186,-0.0001016371
456.2186,-0.0001016456
456.3186,-0.0001016512
456.4186,-0.0001015985
456.5186,-0.0001015683
456.6187,-0.0001015542
456.7187,-0.0001015278
456.8187,-0.00010151
456.9187,-0.0001014751
457.0187,-0.0001014261
457.1187,-0.0001014092
457.2187,-0.0001014243
457.3187,-0.0001013706
457.4187,-0.0001013433
457.5187,-0.000101315
457.6187,-0.0001012952
457.7187,-0.0001012745
457.8187,-0.0001012642
457.9187,-0.0001011926
458.0187,-0.0001011841
458.1187,-0.0001012293
458.2188,-0.000101203
458.3188,-0.0001011154
458.4188,-0.0001011088
458.5188,-0.0001010965
458.6188,-0.0001010523
458.7188,-0.0001010429
458.8188,-0.0001010033
458.9188,-0.0001009572
459.0188,-0.0001009609
459.1188,-0.0001009364
459.2188,-0.0001008978
459.3188,-0.0001008611
459.4188,-0.0001008771
459.5188,-0.0001008338
459.6188,-0.0001008112
459.7188,-0.0001008008
459.8188,-0.000100798
459.9189,-0.0001007537
460.0189,-0.0001007227
460.1189,-0.000100718
460.2189,-0.0001007038
460.3189,-0.0001006944
460.4189,-0.0001006332
460.5189,-0.0001005871
460.6189,-0.0001006002
460.7189,-0.0001005541
460.8189,-0.0001005042
460.9189,-0.000100507
461.0189,-0.000100475
461.1189,-0.0001004279
461.2189,-0.0001004138
461.3189,-0.0001004091
461.4189,-0.0001003582
461.519,-0.0001003441
461.619,-0.0001003168
461.719,-0.0001002932
461.819,-0.0001002527
461.919,-0.0001002311
462.019,-0.0001002123
462.119,-0.0001001557
462.219,-0.0001001463
462.319,-0.0001000955
462.419,-0.0001000776
462.519,-0.0001000616
462.619,-0.0001000352
462.719,-0.0001000088
462.819,-0.000100007
462.919,-9.995892E-05
463.019,-9.99222E-05
463.119,-9.99156E-05
463.2191,-9.989677E-05
463.3191,-9.985345E-05
463.4191,-9.983555E-05
463.5191,-9.980636E-05
463.6191,-9.976869E-05
463.7191,-9.975834E-05
463.8191,-9.972538E-05
463.9191,-9.967452E-05
464.0191,-9.967075E-05
464.1191,-9.967829E-05
464.2191,-9.962461E-05
464.3191,-9.959353E-05
464.4191,-9.957187E-05
464.5191,-9.95408E-05
464.6191,-9.951442E-05
464.7191,-9.952478E-05
464.8192,-9.946451E-05
464.9192,-9.945416E-05
465.0192,-9.946828E-05
465.1192,-9.940424E-05
465.2192,-9.938918E-05
465.3192,-9.936846E-05
465.4192,-9.932137E-05
465.5192,-9.928559E-05
465.6192,-9.927334E-05
465.7192,-9.929218E-05
465.8192,-9.922155E-05
465.9192,-9.924696E-05
466.0192,-9.919518E-05
466.1192,-9.916881E-05
466.2192,-9.915845E-05
466.3192,-9.911513E-05
466.4193,-9.907463E-05
466.5193,-9.908029E-05
466.6193,-9.905957E-05
466.7193,-9.898611E-05
466.8193,-9.896822E-05
466.9193,-9.899176E-05
467.0193,-9.894092E-05
467.1193,-9.891643E-05
467.2193,-9.89249E-05
467.3193,-9.886087E-05
467.4193,-9.877141E-05
467.5193,-9.884109E-05
467.6193,-9.878741E-05
467.7193,-9.87488E-05
467.8193,-9.879872E-05
467.9193,-9.874974E-05
468.0193,-9.871396E-05
468.1194,-9.870265E-05
468.2194,-9.866121E-05
468.3194,-9.863674E-05
468.4194,-9.862731E-05
468.5194,-9.861508E-05
468.6194,-9.856328E-05
468.7194,-9.853597E-05
468.8194,-9.851902E-05
468.9194,-9.849265E-05
469.0194,-9.849077E-05
469.1194,-9.846628E-05
469.2194,-9.841919E-05
469.3194,-9.838906E-05
469.4194,-9.840036E-05
469.5194,-9.838059E-05
469.6194,-9.837023E-05
469.7195,-9.83156E-05
469.8195,-9.828169E-05
469.9195,-9.825344E-05
470.0195,-9.826003E-05
470.1195,-9.82139E-05
470.2195,-9.819695E-05
470.3195,-9.817246E-05
470.4195,-9.812537E-05
470.5195,-9.812444E-05
470.6195,-9.811125E-05
470.7195,-9.807452E-05
470.8195,-9.800294E-05
470.9195,-9.805569E-05
471.0195,-9.801331E-05
471.1195,-9.798788E-05
471.2195,-9.800483E-05
471.3195,-9.797093E-05
471.4196,-9.791442E-05
471.5196,-9.79408E-05
471.6196,-9.790501E-05
471.7196,-9.787016E-05
471.8196,-9.785133E-05
471.9196,-9.781649E-05
472.0196,-9.782967E-05
472.1196,-9.784945E-05
472.2196,-9.776845E-05
472.3196,-9.773079E-05
472.4196,-9.771196E-05
472.5196,-9.769217E-05
472.6196,-9.765733E-05
472.7196,-9.76385E-05
472.8196,-9.758199E-05
472.9196,-9.753303E-05
473.0197,-9.753113E-05
473.1197,-9.751325E-05
473.2197,-9.746239E-05
473.3197,-9.743038E-05
473.4197,-9.743226E-05
473.5197,-9.739742E-05
473.6197,-9.736823E-05
473.7197,-9.734939E-05
473.8197,-9.731266E-05
473.9197,-9.731078E-05
474.0197,-9.727969E-05
474.1197,-9.722508E-05
474.2197,-9.724579E-05
474.3197,-9.723826E-05
474.4197,-9.716668E-05
474.5197,-9.711678E-05
474.6198,-9.713184E-05
474.7198,-9.710265E-05
474.8198,-9.707345E-05
474.9198,-9.709512E-05
475.0198,-9.702449E-05
475.1198,-9.699812E-05
475.2198,-9.697646E-05
475.3198,-9.695574E-05
475.4198,-9.690772E-05
475.5198,-9.692467E-05
475.6198,-9.690206E-05
475.7198,-9.685592E-05
475.8198,-9.684556E-05
475.9198,-9.68126E-05
476.0198,-9.679E-05
476.1198,-9.676363E-05
476.2198,-9.676269E-05
476.3199,-9.669865E-05
476.4199,-9.669017E-05
476.5199,-9.6693E-05
476.6199,-9.664686E-05
476.7199,-9.662331E-05
476.8199,-9.661577E-05
476.9199,-9.656869E-05
477.0199,-9.654326E-05
477.1199,-9.655645E-05
477.2199,-9.651595E-05
477.3199,-9.647358E-05
477.4199,-9.645285E-05
477.5199,-9.642178E-05
477.6199,-9.6402E-05
477.7199,-9.640012E-05
477.8199,-9.635021E-05
477.92,-9.631442E-05
478.02,-9.634456E-05
478.12,-9.634833E-05
478.22,-9.628711E-05
478.32,-9.624662E-05
478.42,-9.625039E-05
478.52,-9.620519E-05
478.62,-9.620895E-05
478.72,-9.616657E-05
478.82,-9.61176E-05
478.92,-9.612419E-05
479.02,-9.611666E-05
479.12,-9.606392E-05
479.22,-9.606863E-05
479.32,-9.607145E-05
479.42,-9.602155E-05
479.5201,-9.60093E-05
479.6201,-9.600271E-05
479.7201,-9.59707E-05
479.8201,-9.594338E-05
479.9201,-9.591984E-05
480.0201,-9.589912E-05
480.1201,-9.58558E-05
480.2201,-9.584356E-05
480.3201,-9.579742E-05
480.4201,-9.581153E-05
480.5201,-9.578705E-05
480.6201,-9.573714E-05
480.7201,-9.571642E-05
480.8201,-9.572585E-05
480.9201,-9.568629E-05
481.0201,-9.566745E-05
481.1201,-9.561754E-05
481.2202,-9.561472E-05
481.3202,-9.558647E-05
481.4202,-9.559683E-05
481.5202,-9.554503E-05
481.6202,-9.549229E-05
481.7202,-9.549888E-05
481.8202,-9.552337E-05
481.9202,-9.543956E-05
482.0202,-9.54066E-05
482.1202,-9.542448E-05
482.2202,-9.537835E-05
482.3202,-9.538211E-05
482.4202,-9.535669E-05
482.5202,-9.530018E-05
482.6202,-9.530206E-05
482.7202,-9.532372E-05
482.8203,-9.524556E-05
482.9203,-9.521919E-05
483.0203,-9.526251E-05
483.1203,-9.523897E-05
483.2203,-9.518905E-05
483.3203,-9.516928E-05
483.4203,-9.515609E-05
483.5203,-9.513914E-05
483.6203,-9.513066E-05
483.7203,-9.506474E-05
483.8203,-9.502331E-05
483.9203,-9.50412E-05
484.0203,-9.503084E-05
484.1203,-9.497339E-05
484.2203,-9.495174E-05
484.3203,-9.494232E-05
484.4203,-9.490936E-05
484.5204,-9.490089E-05
484.6204,-9.485756E-05
484.7204,-9.482837E-05
484.8204,-9.484815E-05
484.9204,-9.479729E-05
485.0204,-9.474267E-05
485.1204,-9.47907E-05
485.2204,-9.477846E-05
485.3204,-9.470312E-05
485.4204,-9.468428E-05
485.5204,-9.466262E-05
485.6204,-9.464286E-05
485.7204,-9.464945E-05
485.8204,-9.461554E-05
485.9204,-9.454679E-05
486.0204,-9.457222E-05
486.1205,-9.454491E-05
486.2205,-9.449217E-05
486.3205,-9.446957E-05
486.4205,-9.450442E-05
486.5205,-9.445168E-05
486.6205,-9.444509E-05
486.7205,-9.442155E-05
486.8205,-9.437728E-05
486.9205,-9.434432E-05
487.0205,-9.435185E-05
487.1205,-9.433302E-05
487.2205,-9.429629E-05
487.3205,-9.427369E-05
487.4205,-9.424073E-05
487.5205,-9.424167E-05
487.6205,-9.422567E-05
487.7206,-9.416822E-05
487.8206,-9.416162E-05
487.9206,-9.414656E-05
488.0206,-9.410983E-05
488.1206,-9.409288E-05
488.2206,-9.407687E-05
488.3206,-9.404391E-05
488.4206,-9.402037E-05
488.5206,-9.400248E-05
488.6206,-9.396952E-05
488.7206,-9.397328E-05
488.8206,-9.395162E-05
488.9206,-9.390265E-05
489.0206,-9.385745E-05
489.1206,-9.388099E-05
489.2206,-9.389323E-05
489.3206,-9.382072E-05
489.4207,-9.381319E-05
489.5207,-9.37887E-05
489.6207,-9.37548E-05
489.7207,-9.37595E-05
489.8207,-9.372278E-05
489.9207,-9.36917E-05
490.0207,-9.368134E-05
490.1207,-9.364838E-05
490.2207,-9.364179E-05
490.3207,-9.367475E-05
490.4207,-9.360789E-05
490.5207,-9.357776E-05
490.6207,-9.354856E-05
490.7207,-9.354574E-05
490.8207,-9.351465E-05
490.9207,-9.349205E-05
491.0208,-9.346287E-05
491.1208,-9.345721E-05
491.2208,-9.342048E-05
491.3208,-9.339882E-05
491.4208,-9.334138E-05
491.5208,-9.337245E-05
491.6208,-9.334702E-05
491.7208,-9.329712E-05
491.8208,-9.326415E-05
491.9208,-9.329806E-05
492.0208,-9.326415E-05
492.1208,-9.324156E-05
492.2208,-9.322366E-05
492.3208,-9.319164E-05
492.4208,-9.318128E-05
492.5208,-9.319917E-05
492.6208,-9.314362E-05
492.7209,-9.30937E-05
492.8209,-9.310123E-05
492.9209,-9.30711E-05
493.0209,-9.30259E-05
493.1209,-9.301554E-05
493.2209,-9.301366E-05
493.3209,-9.298352E-05
493.4209,-9.293361E-05
493.5209,-9.294962E-05
493.6209,-9.292513E-05
493.7209,-9.290159E-05
493.8209,-9.287899E-05
493.9209,-9.282248E-05
494.0209,-9.278292E-05
494.1209,-9.278765E-05
494.2209,-9.275939E-05
494.321,-9.271795E-05
494.421,-9.271136E-05
494.521,-9.270194E-05
494.621,-9.269817E-05
494.721,-9.266615E-05
494.821,-9.261436E-05
494.921,-9.259271E-05
495.021,-9.260212E-05
495.121,-9.256446E-05
495.221,-9.253903E-05
495.321,-9.250983E-05
495.421,-9.244579E-05
495.521,-9.246275E-05
495.621,-9.245898E-05
495.721,-9.239776E-05
495.821,-9.23761E-05
495.9211,-9.237893E-05
496.0211,-9.233467E-05
496.1211,-9.232807E-05
496.2211,-9.23083E-05
496.3211,-9.229606E-05
496.4211,-9.225651E-05
496.5211,-9.225556E-05
496.6211,-9.223673E-05
496.7211,-9.217551E-05
496.8211,-9.222166E-05
496.9211,-9.218775E-05
497.0211,-9.210582E-05
497.1211,-9.212748E-05
497.2211,-9.21369E-05
497.3211,-9.211148E-05
497.4211,-9.208416E-05
497.5211,-9.205969E-05
497.6212,-9.205026E-05
497.7212,-9.202955E-05
497.8212,-9.196645E-05
497.9212,-9.192595E-05
498.0212,-9.189488E-05
498.1212,-9.191089E-05
498.2212,-9.18525E-05
498.3212,-9.182801E-05
498.4212,-9.179411E-05
498.5212,-9.177433E-05
498.6212,-9.177057E-05
498.7212,-9.177057E-05
498.8212,-9.170371E-05
498.9212,-9.168864E-05
499.0212,-9.16877E-05
499.1212,-9.16359E-05
499.2213,-9.163684E-05
499.3213,-9.162743E-05
499.4213,-9.153796E-05
499.5213,-9.152854E-05
499.6213,-9.154455E-05
499.7213,-9.150312E-05
499.8213,-9.147675E-05
499.9213,-9.14824E-05
500.0213,-9.142495E-05
500.1213,-9.14259E-05
500.2213,-9.139859E-05
500.3213,-9.134961E-05
500.4213,-9.13854E-05
500.5213,-9.138729E-05
500.6213,-9.131665E-05
500.7213,-9.127428E-05
500.8214,-9.126862E-05
500.9214,-9.124414E-05
501.0214,-9.121872E-05
501.1214,-9.121966E-05
501.2214,-9.11688E-05
501.3214,-9.113207E-05
501.4214,-9.113019E-05
501.5214,-9.111889E-05
501.6214,-9.107745E-05
501.7214,-9.104732E-05
501.8214,-9.105298E-05
501.9214,-9.102378E-05
502.0214,-9.103602E-05
502.1214,-9.097951E-05
502.2214,-9.095785E-05
502.3214,-9.091925E-05
502.4214,-9.093055E-05
502.5215,-9.091831E-05
502.6215,-9.087027E-05
502.7215,-9.087309E-05
502.8215,-9.084108E-05
502.9215,-9.083167E-05
503.0215,-9.080906E-05
503.1215,-9.078645E-05
503.2215,-9.077422E-05
503.3215,-9.073466E-05
503.4215,-9.069793E-05
503.5215,-9.069134E-05
503.6215,-9.069229E-05
503.7215,-9.066686E-05
503.8215,-9.060377E-05
503.9215,-9.061789E-05
504.0215,-9.062165E-05
504.1216,-9.055668E-05
504.2216,-9.054915E-05
504.3216,-9.054632E-05
504.4216,-9.052278E-05
504.5216,-9.049735E-05
504.6216,-9.047287E-05
504.7216,-9.043143E-05
504.8216,-9.040882E-05
504.9216,-9.042578E-05
505.0216,-9.037681E-05
505.1216,-9.034573E-05
505.2216,-9.033536E-05
505.3216,-9.030053E-05
505.4216,-9.027793E-05
505.5216,-9.027793E-05
505.6216,-9.024779E-05
505.7216,-9.021765E-05
505.8217,-9.024968E-05
505.9217,-9.020259E-05
506.0217,-9.014797E-05
506.1217,-9.020448E-05
506.2217,-9.01555E-05
506.3217,-9.012443E-05
506.4217,-9.010841E-05
506.5217,-9.007921E-05
506.6217,-9.005285E-05
506.7217,-9.004626E-05
506.8217,-9.001801E-05
506.9217,-9.000483E-05
507.0217,-9.001424E-05
507.1217,-8.996715E-05
507.2217,-8.993043E-05
507.3217,-8.991912E-05
507.4218,-8.990594E-05
507.5218,-8.987016E-05
507.6218,-8.985602E-05
507.7218,-8.982966E-05
507.8218,-8.97788E-05
507.9218,-8.978729E-05
508.0218,-8.977692E-05
508.1218,-8.975904E-05
508.2218,-8.974961E-05
508.3218,-8.971288E-05
508.4218,-8.967804E-05
508.5218,-8.967145E-05
508.6218,-8.962437E-05
508.7218,-8.959517E-05
508.8218,-8.961683E-05
508.9218,-8.962531E-05
509.0219,-8.955279E-05
509.1219,-8.954432E-05
509.2219,-8.954055E-05
509.3219,-8.950195E-05
509.4219,-8.952549E-05
509.5219,-8.94671E-05
509.6219,-8.943884E-05
509.7219,-8.945768E-05
509.8219,-8.943695E-05
509.9219,-8.935785E-05
510.0219,-8.934843E-05
510.1219,-8.934938E-05
510.2219,-8.930511E-05
510.3219,-8.927121E-05
510.4219,-8.924484E-05
510.5219,-8.923072E-05
510.6219,-8.921941E-05
510.722,-8.917704E-05
510.822,-8.915538E-05
510.922,-8.912807E-05
511.022,-8.914879E-05
511.122,-8.910358E-05
511.222,-8.906027E-05
511.322,-8.903672E-05
511.422,-8.904331E-05
511.522,-8.902637E-05
511.622,-8.898964E-05
511.722,-8.896044E-05
511.822,-8.894538E-05
511.922,-8.892184E-05
512.022,-8.890582E-05
512.122,-8.887475E-05
512.222,-8.888511E-05
512.322,-8.890959E-05
512.4219,-8.883237E-05
512.5219,-8.882766E-05
512.6219,-8.882012E-05
512.7219,-8.877963E-05
512.8218,-8.8806E-05
512.9218,-8.879281E-05
513.0218,-8.871936E-05
513.1218,-8.869111E-05
513.2217,-8.871559E-05
513.3217,-8.866945E-05
513.4217,-8.869958E-05
513.5217,-8.866004E-05
513.6216,-8.865626E-05
513.7216,-8.863179E-05
513.8216,-8.86186E-05
513.9216,-8.854231E-05
514.0215,-8.855456E-05
514.1215,-8.85216E-05
514.2215,-8.847733E-05
514.3215,-8.844814E-05
514.4214,-8.845756E-05
514.5214,-8.840859E-05
514.6214,-8.835019E-05
514.7214,-8.84425E-05
514.8214,-8.844437E-05
514.9213,-8.835115E-05
515.0213,-8.833702E-05
515.1213,-8.833043E-05
515.2213,-8.828428E-05
515.3212,-8.831912E-05
515.4212,-8.825603E-05
515.5212,-8.818446E-05
515.6212,-8.8208E-05
515.7211,-8.820423E-05
515.8211,-8.814208E-05
515.9211,-8.812324E-05
516.0211,-8.813079E-05
516.121,-8.808652E-05
516.221,-8.80705E-05
516.321,-8.804884E-05
516.421,-8.800364E-05
516.5209,-8.801306E-05
516.6209,-8.801118E-05
516.7209,-8.795656E-05
516.8209,-8.791889E-05
516.9208,-8.794808E-05
517.0208,-8.790477E-05
517.1208,-8.789158E-05
517.2208,-8.788311E-05
517.3207,-8.783978E-05
517.4207,-8.783695E-05
517.5207,-8.782472E-05
517.6207,-8.780023E-05
517.7206,-8.779364E-05
517.8206,-8.776163E-05
517.9206,-8.775408E-05
518.0206,-8.77296E-05
518.1205,-8.771924E-05
518.2205,-8.764672E-05
518.3205,-8.768251E-05
518.4205,-8.767404E-05
518.5204,-8.763636E-05
518.6204,-8.759399E-05
518.7204,-8.75761E-05
518.8204,-8.756574E-05
518.9203,-8.75808E-05
519.0203,-8.754503E-05
519.1203,-8.754032E-05
519.2203,-8.748004E-05
519.3203,-8.750924E-05
519.4202,-8.748758E-05
519.5202,-8.74452E-05
519.6202,-8.744896E-05
519.7202,-8.740941E-05
519.8201,-8.740658E-05
519.9201,-8.737927E-05
520.0201,-8.734538E-05
520.1201,-8.731995E-05
520.22,-8.738587E-05
520.32,-8.73774E-05
520.42,-8.72964E-05
520.52,-8.726721E-05
520.6199,-8.727945E-05
520.7199,-8.72173E-05
520.8199,-8.72399E-05
520.9199,-8.721259E-05
521.0198,-8.715702E-05
521.1198,-8.715797E-05
521.2198,-8.71608E-05
521.3198,-8.71203E-05
521.4197,-8.708735E-05
521.5197,-8.709487E-05
521.6197,-8.70638E-05
521.7197,-8.707792E-05
521.8196,-8.704496E-05
521.9196,-8.702989E-05
522.0196,-8.702707E-05
522.1196,-8.702518E-05
522.2195,-8.700353E-05
522.3195,-8.696209E-05
522.4195,-8.692253E-05
522.5195,-8.690182E-05
522.6194,-8.687074E-05
522.7194,-8.686226E-05
522.8194,-8.682741E-05
522.9194,-8.683872E-05
523.0193,-8.680011E-05
523.1193,-8.676526E-05
523.2193,-8.67728E-05
523.3193,-8.677186E-05
523.4193,-8.675585E-05
523.5192,-8.668898E-05
523.6192,-8.671723E-05
523.7192,-8.67229E-05
523.8192,-8.668616E-05
523.9191,-8.666921E-05
524.0191,-8.66193E-05
524.1191,-8.660517E-05
524.2191,-8.666639E-05
524.319,-8.662307E-05
524.419,-8.653266E-05
524.519,-8.651759E-05
524.619,-8.652701E-05
524.7189,-8.649122E-05
524.8189,-8.648934E-05
524.9189,-8.645544E-05
525.0189,-8.639611E-05
525.1188,-8.641777E-05
525.2188,-8.642153E-05
525.3188,-8.635938E-05
525.4188,-8.633301E-05
525.5187,-8.63302E-05
525.6187,-8.632736E-05
525.7187,-8.629816E-05
525.8187,-8.629252E-05
525.9186,-8.623601E-05
526.0186,-8.623601E-05
526.1186,-8.624638E-05
526.2186,-8.620588E-05
526.3185,-8.618327E-05
526.4185,-8.617951E-05
526.5185,-8.612206E-05
526.6185,-8.612865E-05
526.7184,-8.612395E-05
526.8184,-8.609287E-05
526.9184,-8.605615E-05
527.0184,-8.606556E-05
527.1183,-8.602224E-05
527.2183,-8.600152E-05
527.3183,-8.601565E-05
527.4183,-8.598363E-05
527.5182,-8.597045E-05
527.6182,-8.594596E-05
527.7182,-8.591959E-05
527.8182,-8.591865E-05
527.9182,-8.589699E-05
528.0181,-8.586214E-05
528.1181,-8.584237E-05
528.2181,-8.584143E-05
528.3181,-8.584614E-05
528.418,-8.58226E-05
528.518,-8.582542E-05
528.618,-8.574726E-05
528.718,-8.572936E-05
528.8179,-8.579057E-05
528.9179,-8.577739E-05
529.0179,-8.571712E-05
529.1179,-8.569358E-05
529.2178,-8.568227E-05
529.3178,-8.565214E-05
529.4178,-8.567757E-05
529.5178,-8.563424E-05
529.6177,-8.559281E-05
529.7177,-8.558339E-05
529.8177,-8.557209E-05
529.9177,-8.554573E-05
530.0176,-8.552313E-05
530.1176,-8.547886E-05
530.2176,-8.545815E-05
530.3176,-8.545438E-05
530.4175,-8.546285E-05
530.5175,-8.539128E-05
530.6175,-8.539034E-05
530.7175,-8.536868E-05
530.8174,-8.536209E-05
530.9174,-8.534231E-05
531.0174,-8.532348E-05
531.1174,-8.528486E-05
531.2173,-8.528581E-05
531.3173,-8.528863E-05
531.4173,-8.524249E-05
531.5173,-8.521612E-05
531.6172,-8.519729E-05
531.7172,-8.519634E-05
531.8172,-8.519163E-05
531.9172,-8.515868E-05
532.0172,-8.513513E-05
532.1171,-8.513419E-05
532.2171,-8.513136E-05
532.3171,-8.510405E-05
532.4171,-8.508333E-05
532.517,-8.505226E-05
532.617,-8.504567E-05
532.717,-8.504943E-05
532.817,-8.501742E-05
532.9169,-8.499198E-05
533.0169,-8.496656E-05
533.1169,-8.49741E-05
533.2169,-8.495526E-05
533.3168,-8.491571E-05
533.4168,-8.489028E-05
533.5168,-8.488651E-05
533.6168,-8.487428E-05
533.7167,-8.484884E-05
533.8167,-8.481777E-05
533.9167,-8.478764E-05
534.0167,-8.481494E-05
534.1166,-8.479611E-05
534.2166,-8.474902E-05
534.3166,-8.473113E-05
534.4166,-8.472453E-05
534.5165,-8.471136E-05
534.6165,-8.467463E-05
534.7165,-8.467463E-05
534.8165,-8.465297E-05
534.9164,-8.463884E-05
535.0164,-8.462094E-05
535.1164,-8.458045E-05
535.2164,-8.456915E-05
535.3163,-8.458139E-05
535.4163,-8.454561E-05
535.5163,-8.453431E-05
535.6163,-8.451453E-05
535.7162,-8.447403E-05
535.8162,-8.449476E-05
535.9162,-8.448533E-05
536.0162,-8.442412E-05
536.1161,-8.441847E-05
536.2161,-8.439022E-05
536.3161,-8.437798E-05
536.4161,-8.438739E-05
536.5161,-8.435066E-05
536.616,-8.429981E-05
536.716,-8.430735E-05
536.816,-8.431488E-05
536.916,-8.426874E-05
537.0159,-8.426214E-05
537.1159,-8.423578E-05
537.2159,-8.419905E-05
537.3159,-8.421129E-05
537.4158,-8.418586E-05
537.5158,-8.415761E-05
537.6158,-8.415573E-05
537.7158,-8.41369E-05
537.8157,-8.411712E-05
537.9157,-8.411335E-05
538.0157,-8.406344E-05
538.1157,-8.405308E-05
538.2156,-8.408228E-05
538.3156,-8.404367E-05
538.4156,-8.400788E-05
538.5156,-8.395232E-05
538.6155,-8.399657E-05
538.7155,-8.396267E-05
538.8155,-8.394007E-05
538.9155,-8.390805E-05
539.0154,-8.388735E-05
539.1154,-8.389299E-05
539.2154,-8.388735E-05
539.3154,-8.384779E-05
539.4153,-8.381106E-05
539.5153,-8.381953E-05
539.6153,-8.379316E-05
539.7153,-8.375361E-05
539.8152,-8.37263E-05
539.9152,-8.374137E-05
540.0152,-8.371877E-05
540.1152,-8.372159E-05
540.2151,-8.366792E-05
540.3151,-8.364437E-05
540.4151,-8.36406E-05
540.5151,-8.366037E-05
540.6151,-8.363118E-05
540.715,-8.35954E-05
540.815,-8.358692E-05
540.915,-8.354172E-05
541.015,-8.353607E-05
541.1149,-8.355679E-05
541.2149,-8.350499E-05
541.3149,-8.345791E-05
541.4149,-8.348333E-05
541.5148,-8.344754E-05
541.6148,-8.343059E-05
541.7148,-8.341836E-05
541.8148,-8.337597E-05
541.9147,-8.336845E-05
542.0147,-8.337785E-05
542.1147,-8.33449E-05
542.2147,-8.329216E-05
542.3146,-8.329687E-05
542.4146,-8.331194E-05
542.5146,-8.326956E-05
542.6146,-8.326014E-05
542.7145,-8.324978E-05
542.8145,-8.322624E-05
542.9145,-8.32253E-05
543.0145,-8.318103E-05
543.1144,-8.314337E-05
543.2144,-8.314713E-05
543.3144,-8.315749E-05
543.4144,-8.311888E-05
543.5143,-8.3101E-05
543.6143,-8.307651E-05
543.7143,-8.305767E-05
543.8143,-8.304731E-05
543.9142,-8.305108E-05
544.0142,-8.300022E-05
544.1142,-8.298986E-05
544.2142,-8.297198E-05
544.3141,-8.295502E-05
544.4141,-8.295032E-05
544.5141,-8.29522E-05
544.6141,-8.291358E-05
544.7141,-8.289663E-05
544.814,-8.287592E-05
544.914,-8.285614E-05
545.014,-8.286085E-05
545.114,-8.285708E-05
545.2139,-8.279587E-05
545.3139,-8.279681E-05
545.4139,-8.27921E-05
545.5139,-8.280811E-05
545.6138,-8.281753E-05
545.7138,-8.276196E-05
545.8138,-8.27356E-05
545.9138,-8.272524E-05
546.0137,-8.271205E-05
546.1137,-8.26791E-05
546.2137,-8.268758E-05
546.3137,-8.264143E-05
546.4136,-8.261506E-05
546.5136,-8.262824E-05
546.6136,-8.262448E-05
546.7136,-8.253312E-05
546.8135,-8.261035E-05
546.9135,-8.258304E-05
547.0135,-8.252936E-05
547.1135,-8.2519E-05
547.2134,-8.250205E-05
547.3134,-8.247286E-05
547.4134,-8.246438E-05
547.5134,-8.248699E-05
547.6133,-8.239469E-05
547.7133,-8.24286E-05
547.8133,-8.239752E-05
547.9133,-8.236361E-05
548.0132,-8.234289E-05
548.1132,-8.233442E-05
548.2132,-8.233912E-05
548.3132,-8.230899E-05
548.4131,-8.230711E-05
548.5131,-8.22572E-05
548.6131,-8.223271E-05
548.7131,-8.226662E-05
548.813,-8.22393E-05
548.913,-8.219786E-05
549.013,-8.219316E-05
549.113,-8.214984E-05
549.213,-8.215267E-05
549.3129,-8.213572E-05
549.4129,-8.209334E-05
549.5129,-8.209428E-05
549.6129,-8.209616E-05
549.7128,-8.20745E-05
549.8128,-8.203212E-05
549.9128,-8.202271E-05
550.0128,-8.202271E-05
550.1127,-8.199162E-05
550.2127,-8.198975E-05
550.3127,-8.194736E-05
550.4127,-8.192289E-05
550.5126,-8.191817E-05
550.6126,-8.190687E-05
550.7126,-8.186261E-05
550.8126,-8.183436E-05
550.9125,-8.183342E-05
551.0125,-8.182588E-05
551.1125,-8.180234E-05
551.2125,-8.176938E-05
551.3124,-8.17675E-05
551.4124,-8.174301E-05
551.5124,-8.17383E-05
551.6124,-8.170346E-05
551.7123,-8.168745E-05
551.8123,-8.165732E-05
551.9123,-8.164131E-05
552.0123,-8.163943E-05
552.1122,-8.163471E-05
552.2122,-8.161118E-05
552.3122,-8.158952E-05
552.4122,-8.156408E-05
552.5121,-8.15735E-05
552.6121,-8.155938E-05
552.7121,-8.152453E-05
552.8121,-8.14831E-05
552.912,-8.146332E-05
553.012,-8.147839E-05
553.112,-8.149628E-05
553.212,-8.14313E-05
553.312,-8.140964E-05
553.4119,-8.141246E-05
553.5119,-8.137385E-05
553.6119,-8.13908E-05
553.7119,-8.136821E-05
553.8118,-8.129287E-05
553.9118,-8.126179E-05
554.0118,-8.125708E-05
554.1118,-8.125143E-05
554.2117,-8.12552E-05
554.3117,-8.12147E-05
554.4117,-8.119305E-05
554.5117,-8.118456E-05
554.6116,-8.121093E-05
554.7116,-8.116291E-05
554.8116,-8.11469E-05
554.9116,-8.113276E-05
555.0115,-8.109228E-05
555.1115,-8.110735E-05
555.2115,-8.110075E-05
555.3115,-8.105838E-05
555.4114,-8.10546E-05
555.5114,-8.102636E-05
555.6114,-8.099999E-05
555.7114,-8.101128E-05
555.8113,-8.101788E-05
555.9113,-8.095385E-05
556.0113,-8.095572E-05
556.1113,-8.093972E-05
556.2112,-8.092088E-05
556.3112,-8.091335E-05
556.4112,-8.089169E-05
556.5112,-8.085591E-05
556.6111,-8.086532E-05
556.7111,-8.085025E-05
556.8111,-8.082388E-05
556.9111,-8.079563E-05
557.011,-8.077774E-05
557.111,-8.076927E-05
557.211,-8.076079E-05
557.311,-8.076361E-05
557.4109,-8.071277E-05
557.5109,-8.069393E-05
557.6109,-8.070993E-05
557.7109,-8.069863E-05
557.8109,-8.069769E-05
557.9108,-8.068262E-05
558.0108,-8.062424E-05
558.1108,-8.061294E-05
558.2108,-8.061859E-05
558.3107,-8.05536E-05
558.4107,-8.053854E-05
558.5107,-8.053572E-05
558.6107,-8.050087E-05
558.7106,-8.049993E-05
558.8106,-8.053194E-05
558.9106,-8.046226E-05
559.0106,-8.044342E-05
559.1105,-8.047262E-05
559.2105,-8.041706E-05
559.3105,-8.041141E-05
559.4105,-8.039446E-05
559.5104,-8.038316E-05
559.6104,-8.03794E-05
559.7104,-8.037185E-05
559.8104,-8.031723E-05
559.9103,-8.029652E-05
560.0103,-8.031064E-05
560.1103,-8.027298E-05
560.2103,-8.023059E-05
560.3102,-8.026261E-05
560.4102,-8.024284E-05
560.5102,-8.017691E-05
560.6102,-8.017127E-05
560.7101,-8.018822E-05
560.8101,-8.013453E-05
560.9101,-8.009687E-05
561.0101,-8.014395E-05
561.11,-8.013925E-05
561.21,-8.010535E-05
561.31,-8.007521E-05
561.41,-8.006014E-05
561.5099,-8.003283E-05
561.6099,-8.00413E-05
561.7099,-8.000552E-05
561.8099,-7.997444E-05
561.9099,-8.003E-05
562.0098,-8.001211E-05
562.1098,-7.995938E-05
562.2098,-7.995372E-05
562.3098,-7.994902E-05
562.4097,-7.992171E-05
562.5097,-7.994618E-05
562.6097,-7.991134E-05
562.7097,-7.98652E-05
562.8096,-7.985955E-05
562.9096,-7.984355E-05
563.0096,-7.980211E-05
563.1096,-7.98153E-05
563.2095,-7.979645E-05
563.3095,-7.973336E-05
563.4095,-7.972017E-05
563.5095,-7.973054E-05
563.6094,-7.969287E-05
563.7094,-7.969945E-05
563.8094,-7.963824E-05
563.9094,-7.962224E-05
564.0093,-7.964578E-05
564.1093,-7.964483E-05
564.2093,-7.958456E-05
564.3093,-7.956102E-05
564.4092,-7.956762E-05
564.5092,-7.955536E-05
564.6092,-7.954784E-05
564.7092,-7.951864E-05
564.8091,-7.94772E-05
564.9091,-7.947815E-05
565.0091,-7.94772E-05
565.1091,-7.943672E-05
565.209,-7.943388E-05
565.309,-7.944613E-05
565.409,-7.937927E-05
565.509,-7.936703E-05
565.6089,-7.936514E-05
565.7089,-7.935667E-05
565.8089,-7.930204E-05
565.9089,-7.933596E-05
566.0089,-7.931711E-05
566.1088,-7.92785E-05
566.2088,-7.930581E-05
566.3088,-7.927474E-05
566.4088,-7.924836E-05
566.5087,-7.925873E-05
566.6087,-7.922671E-05
566.7087,-7.919092E-05
566.8087,-7.91994E-05
566.9086,-7.913912E-05
567.0086,-7.912877E-05
567.1086,-7.912501E-05
567.2086,-7.909204E-05
567.3085,-7.90572E-05
567.4085,-7.906002E-05
567.5085,-7.904872E-05
567.6085,-7.903459E-05
567.7084,-7.90233E-05
567.8084,-7.900823E-05
567.9084,-7.895173E-05
568.0084,-7.895738E-05
568.1083,-7.896396E-05
568.2083,-7.892065E-05
568.3083,-7.890463E-05
568.4083,-7.887544E-05
568.5082,-7.887073E-05
568.6082,-7.886038E-05
568.7082,-7.884719E-05
568.8082,-7.88067E-05
568.9081,-7.877185E-05
569.0081,-7.878221E-05
569.1081,-7.878503E-05
569.2081,-7.873512E-05
569.308,-7.872006E-05
569.408,-7.877279E-05
569.508,-7.870499E-05
569.608,-7.870593E-05
569.7079,-7.868615E-05
569.8079,-7.86645E-05
569.9079,-7.863435E-05
570.0079,-7.861741E-05
570.1078,-7.860894E-05
570.2078,-7.85788E-05
570.3078,-7.856843E-05
570.4078,-7.851946E-05
570.5078,-7.852323E-05
570.6077,-7.853925E-05
570.7077,-7.849498E-05
570.8077,-7.848086E-05
570.9077,-7.847991E-05
571.0076,-7.842529E-05
571.1076,-7.844884E-05
571.2076,-7.841494E-05
571.3076,-7.838103E-05
571.4075,-7.83961E-05
571.5075,-7.839234E-05
571.6075,-7.837256E-05
571.7075,-7.835183E-05
571.8074,-7.833677E-05
571.9074,-7.831606E-05
572.0074,-7.827274E-05
572.1074,-7.830099E-05
572.2073,-7.827179E-05
572.3073,-7.82313E-05
572.4073,-7.824166E-05
572.5073,-7.822095E-05
572.6072,-7.818892E-05
572.7072,-7.822188E-05
572.8072,-7.821246E-05
572.9072,-7.813241E-05
573.0071,-7.814937E-05
573.1071,-7.814089E-05
573.2071,-7.810039E-05
573.3071,-7.809945E-05
573.407,-7.809287E-05
573.507,-7.804672E-05
573.607,-7.806555E-05
573.707,-7.806932E-05
573.8069,-7.799493E-05
573.9069,-7.797327E-05
574.0069,-7.799963E-05
574.1069,-7.795725E-05
574.2068,-7.796573E-05
574.3068,-7.793371E-05
574.4068,-7.789039E-05
574.5068,-7.788568E-05
574.6068,-7.788945E-05
574.7067,-7.784896E-05
574.8067,-7.785179E-05
574.9067,-7.782824E-05
575.0067,-7.779528E-05
575.1066,-7.778303E-05
575.2066,-7.777362E-05
575.3066,-7.774631E-05
575.4066,-7.772558E-05
575.5065,-7.774254E-05
575.6065,-7.770205E-05
575.7065,-7.767191E-05
575.8065,-7.769827E-05
575.9064,-7.765496E-05
576.0064,-7.765119E-05
576.1064,-7.765307E-05
576.2064,-7.760316E-05
576.3063,-7.75994E-05
576.4063,-7.760128E-05
576.5063,-7.756455E-05
576.6063,-7.753442E-05
576.7062,-7.752971E-05
576.8062,-7.753536E-05
576.9062,-7.750522E-05
577.0062,-7.752123E-05
577.1061,-7.747886E-05
577.2061,-7.747508E-05
577.3061,-7.747037E-05
577.4061,-7.746285E-05
577.506,-7.742517E-05
577.606,-7.740351E-05
577.706,-7.739975E-05
577.806,-7.734889E-05
577.9059,-7.737245E-05
578.0059,-7.734325E-05
578.1059,-7.729145E-05
578.2059,-7.732723E-05
578.3058,-7.73423E-05
578.4058,-7.731688E-05
578.5058,-7.730557E-05
578.6058,-7.726603E-05
578.7057,-7.723212E-05
578.8057,-7.723683E-05
578.9057,-7.722082E-05
579.0057,-7.716902E-05
579.1057,-7.717939E-05
579.2056,-7.713512E-05
579.3056,-7.71097E-05
579.4056,-7.709934E-05
579.5056,-7.710404E-05
579.6055,-7.704284E-05
579.7055,-7.705695E-05
579.8055,-7.705884E-05
579.9055,-7.704472E-05
580.0054,-7.702777E-05
580.1054,-7.701082E-05
580.2054,-7.700045E-05
580.3054,-7.699857E-05
580.4053,-7.698163E-05
580.5053,-7.695996E-05
580.6053,-7.693171E-05
580.7053,-7.694771E-05
580.8052,-7.692888E-05
580.9052,-7.69044E-05
581.0052,-7.689687E-05
581.1052,-7.687803E-05
581.2051,-7.687426E-05
581.3051,-7.683189E-05
581.4051,-7.680551E-05
581.5051,-7.682529E-05
581.605,-7.684978E-05
581.705,-7.680551E-05
581.805,-7.675277E-05
581.905,-7.674713E-05
582.0049,-7.673583E-05
582.1049,-7.67217E-05
582.2049,-7.671981E-05
582.3049,-7.668968E-05
582.4048,-7.664072E-05
582.5048,-7.66878E-05
582.6048,-7.668498E-05
582.7048,-7.663506E-05
582.8047,-7.660304E-05
582.9047,-7.658797E-05
583.0047,-7.655691E-05
583.1047,-7.657102E-05
583.2047,-7.658326E-05
583.3046,-7.651075E-05
583.4046,-7.649003E-05
583.5046,-7.649945E-05
583.6046,-7.646084E-05
583.7045,-7.645519E-05
583.8045,-7.648627E-05
583.9045,-7.64373E-05
584.0045,-7.643542E-05
584.1044,-7.645802E-05
584.2044,-7.639021E-05
584.3044,-7.636385E-05
584.4044,-7.635725E-05
584.5043,-7.635442E-05
584.6043,-7.634125E-05
584.7043,-7.632429E-05
584.8043,-7.632429E-05
584.9042,-7.627343E-05
585.0042,-7.628756E-05
585.1042,-7.627626E-05
585.2042,-7.626308E-05
585.3041,-7.625273E-05
585.4041,-7.621411E-05
585.5041,-7.622353E-05
585.6041,-7.619904E-05
585.704,-7.616702E-05
585.804,-7.614631E-05
585.904,-7.616797E-05
586.004,-7.617456E-05
586.1039,-7.611806E-05
586.2039,-7.613972E-05
586.3039,-7.612465E-05
586.4039,-7.609733E-05
586.5038,-7.60964E-05
586.6038,-7.608038E-05
586.7038,-7.604741E-05
586.8038,-7.603894E-05
586.9037,-7.600881E-05
587.0037,-7.599185E-05
587.1037,-7.601823E-05
587.2037,-7.597774E-05
587.3036,-7.594949E-05
587.4036,-7.594195E-05
587.5036,-7.595796E-05
587.6036,-7.590334E-05
587.7036,-7.590804E-05
587.8035,-7.588073E-05
587.9035,-7.587132E-05
588.0035,-7.585814E-05
588.1035,-7.583271E-05
588.2034,-7.58167E-05
588.3034,-7.58054E-05
588.4034,-7.581011E-05
588.5034,-7.576773E-05
588.6033,-7.576584E-05
588.7033,-7.575737E-05
588.8033,-7.572253E-05
588.9033,-7.574984E-05
589.0032,-7.572347E-05
589.1032,-7.568485E-05
589.2032,-7.566885E-05
589.3032,-7.567073E-05
589.4031,-7.566414E-05
589.5031,-7.538633E-05
589.6031,-7.547579E-05
589.7031,-7.551722E-05
589.803,-7.553982E-05
589.903,-7.554548E-05
590.003,-7.550875E-05
590.103,-7.547673E-05
590.2029,-7.547673E-05
590.3029,-7.549462E-05
590.4029,-7.544942E-05
590.5029,-7.54334E-05
590.6028,-7.541834E-05
590.7028,-7.537408E-05
590.8028,-7.540893E-05
590.9028,-7.538539E-05
591.0027,-7.535243E-05
591.1027,-7.533548E-05
591.2027,-7.533548E-05
591.3027,-7.530063E-05
591.4026,-7.533265E-05
591.5026,-7.529592E-05
591.6026,-7.526579E-05
591.7026,-7.526107E-05
591.8026,-7.528086E-05
591.9025,-7.522906E-05
592.0025,-7.520834E-05
592.1025,-7.521587E-05
592.2025,-7.522247E-05
592.3024,-7.521022E-05
592.4024,-7.521587E-05
592.5024,-7.515749E-05
592.6024,-7.514524E-05
592.7023,-7.515372E-05
592.8023,-7.513489E-05
592.9023,-7.511511E-05
593.0023,-7.510193E-05
593.1022,-7.509816E-05
593.2022,-7.505767E-05
593.3022,-7.506143E-05
593.4022,-7.504825E-05
593.5021,-7.506426E-05
593.6021,-7.504071E-05
593.7021,-7.499175E-05
593.8021,-7.500398E-05
593.902,-7.501623E-05
594.002,-7.500681E-05
594.102,-7.494936E-05
594.202,-7.498232E-05
594.3019,-7.497291E-05
594.4019,-7.494559E-05
594.5019,-7.492676E-05
594.6019,-7.489946E-05
594.7018,-7.490416E-05
594.8018,-7.488439E-05
594.9018,-7.486178E-05
595.0018,-7.484201E-05
595.1017,-7.481092E-05
595.2017,-7.482694E-05
595.3017,-7.478927E-05
595.4017,-7.476856E-05
595.5016,-7.47516E-05
595.6016,-7.471864E-05
595.7016,-7.474218E-05
595.8016,-7.473466E-05
595.9016,-7.468756E-05
596.0015,-7.467909E-05
596.1015,-7.467344E-05
596.2015,-7.467344E-05
596.3015,-7.464895E-05
596.4014,-7.465271E-05
596.5014,-7.460375E-05
596.6014,-7.462447E-05
596.7014,-7.461222E-05
596.8013,-7.456608E-05
596.9013,-7.455854E-05
597.0013,-7.454913E-05
597.1013,-7.457079E-05
597.2012,-7.451994E-05
597.3012,-7.450864E-05
597.4012,-7.451899E-05
597.5012,-7.449357E-05
597.6011,-7.450769E-05
597.7011,-7.445966E-05
597.8011,-7.444459E-05
597.9011,-7.446814E-05
598.001,-7.4422E-05
598.101,-7.438527E-05
598.201,-7.444271E-05
598.301,-7.445213E-05
598.4009,-7.439751E-05
598.5009,-7.439091E-05
598.6009,-7.437397E-05
598.7009,-7.434101E-05
598.8008,-7.437397E-05
598.9008,-7.429298E-05
599.0008,-7.427602E-05
599.1008,-7.428638E-05
599.2007,-7.428073E-05
599.3007,-7.421952E-05
599.4007,-7.424872E-05
599.5007,-7.426002E-05
599.6006,-7.421293E-05
599.7006,-7.420351E-05
599.8006,-7.421952E-05
599.9006,-7.41875E-05
600.0005,-7.41941E-05
