EXPID. 0925
[电化学]: i-t : @ 0(V) X 600(sec)
起始电位 (V),0
静置时间 (秒),0
运行时间 (秒),600
记录间隔,0.1
电解液 信息:
HNO3,0.4
0.1,-0.004988709
0.2,-0.004642383
0.3,-0.003971637
0.4,-0.003422268
0.5,-0.002996157
0.6,-0.002657061
0.7,-0.002382839
0.8000001,-0.002163
0.9000001,-0.001982567
1,-0.001829225
1.1,-0.001700977
1.2,-0.001592163
1.3,-0.001497173
1.4,-0.001414838
1.5,-0.001343139
1.6,-0.001279003
1.7,-0.001222615
1.8,-0.001171902
1.9,-0.001125798
2,-0.001084348
2.1,-0.001047205
2.2,-0.001012363
2.3,-0.0009811182
2.4,-0.0009521024
2.5,-0.0009248892
2.6,-0.0009003166
2.7,-0.0008771679
2.799999,-0.0008553273
2.899999,-0.0008354963
2.999999,-0.0008166306
3.099999,-0.000798717
3.199999,-0.0007823318
3.299999,-0.0007666642
3.399999,-0.0007519308
3.499999,-0.0007380498
3.599999,-0.0007249559
3.699999,-0.0007121192
3.799999,-0.0007002694
3.899998,-0.0006888923
3.999998,-0.0006782253
4.099998,-0.0006677381
4.199998,-0.0006581909
4.299998,-0.0006487746
4.399998,-0.0006398968
4.499998,-0.0006309401
4.599998,-0.00062273
4.699998,-0.0006145351
4.799998,-0.000607166
4.899998,-0.0005998318
4.999998,-0.0005925843
5.099998,-0.0005859102
5.199997,-0.0005793369
5.299997,-0.0005729124
5.399997,-0.0005668006
5.499997,-0.0005607914
5.599997,-0.0005548349
5.699997,-0.0005493475
5.799997,-0.0005439824
5.899997,-0.0005386419
5.999997,-0.0005337025
6.099997,-0.0005287735
6.199996,-0.0005238915
6.299996,-0.0005192884
6.399996,-0.0005148481
6.499996,-0.0005103569
6.599996,-0.0005061183
6.699996,-0.0005021329
6.799996,-0.0004979883
6.899996,-0.0004941121
6.999996,-0.0004903621
7.099996,-0.0004865029
7.199996,-0.0004829724
7.299995,-0.0004793439
7.399995,-0.0004757135
7.499995,-0.000472489
7.599995,-0.0004691939
7.699995,-0.0004658978
7.799995,-0.0004628353
7.899995,-0.0004598067
7.999995,-0.0004566566
8.099995,-0.0004538814
8.199995,-0.0004509968
8.299995,-0.0004479965
8.399996,-0.000445321
8.499996,-0.0004426418
8.599997,-0.0004401452
8.699997,-0.0004376355
8.799997,-0.000434945
8.899998,-0.0004324249
8.999998,-0.0004300772
9.099998,-0.0004276155
9.199999,-0.0004252612
9.299999,-0.000423018
9.4,-0.0004206872
9.5,-0.00041859
9.6,-0.0004164353
9.700001,-0.0004143333
9.800001,-0.0004121749
9.900002,-0.0004099948
10,-0.0004079606
10.1,-0.0004059811
10.2,-0.0004039526
10.3,-0.0004019788
10.4,-0.0004001113
10.5,-0.0003983371
10.6,-0.0003964386
10.7,-0.0003946013
10.8,-0.0003928299
10.90001,-0.0003910302
11.00001,-0.0003893276
11.10001,-0.0003875947
11.20001,-0.0003859279
11.30001,-0.0003843241
11.40001,-0.000382727
11.50001,-0.0003811166
11.60001,-0.0003796145
11.70001,-0.0003778732
11.80001,-0.0003764089
11.90001,-0.0003749577
12.00001,-0.0003734556
12.10001,-0.0003719517
12.20001,-0.0003706022
12.30001,-0.000369198
12.40001,-0.0003677619
12.50001,-0.0003663361
12.60001,-0.000364916
12.70001,-0.0003635514
12.80001,-0.0003622575
12.90001,-0.0003608694
13.00001,-0.0003596131
13.10001,-0.0003583737
13.20001,-0.0003570713
13.30001,-0.0003558424
13.40001,-0.0003545899
13.50002,-0.0003533525
13.60002,-0.0003521376
13.70002,-0.0003510076
13.80002,-0.0003497324
13.90002,-0.000348527
14.00002,-0.000347412
14.10002,-0.0003461915
14.20002,-0.0003450568
14.30002,-0.0003439596
14.40002,-0.0003428823
14.50002,-0.0003418408
14.60002,-0.0003407295
14.70002,-0.0003396088
14.80002,-0.0003385353
14.90002,-0.0003375267
15.00002,-0.0003364851
15.10002,-0.0003355302
15.20002,-0.0003344161
15.30002,-0.0003334415
15.40002,-0.0003324828
15.50002,-0.0003315034
15.60002,-0.0003306803
15.70002,-0.0003298497
15.80002,-0.0003290662
15.90002,-0.0003282949
16.00002,-0.0003273126
16.10003,-0.0003265611
16.20003,-0.0003254876
16.30003,-0.0003243349
16.40003,-0.0003234242
16.50003,-0.0003225371
16.60003,-0.0003215097
16.70003,-0.000320713
16.80003,-0.0003197873
16.90003,-0.0003189897
17.00003,-0.000318385
17.10003,-0.0003174612
17.20003,-0.0003165195
17.30003,-0.0003156154
17.40003,-0.0003148121
17.50003,-0.0003138977
17.60003,-0.0003131001
17.70003,-0.0003122939
17.80003,-0.0003114859
17.90003,-0.0003106901
18.00003,-0.0003099791
18.10003,-0.0003091062
18.20003,-0.0003083387
18.30003,-0.0003075872
18.40003,-0.000306798
18.50003,-0.0003060163
18.60003,-0.0003053402
18.70004,-0.0003045661
18.80004,-0.0003038523
18.90004,-0.000303144
19.00004,-0.000302369
19.10004,-0.0003017004
19.20004,-0.0003009696
19.30004,-0.0003002482
19.40004,-0.0002996408
19.50004,-0.0002990136
19.60004,-0.0002983007
19.70004,-0.0002975163
19.80004,-0.0002968571
19.90004,-0.0002962704
20.00004,-0.0002955518
20.10004,-0.0002948766
20.20004,-0.0002942249
20.30004,-0.0002935262
20.40004,-0.000292979
20.50004,-0.0002923358
20.60004,-0.0002917228
20.70004,-0.0002911012
20.80004,-0.0002904608
20.90004,-0.0002897932
21.00004,-0.0002891782
21.10004,-0.0002885199
21.20004,-0.0002878729
21.30005,-0.0002872919
21.40005,-0.000286709
21.50005,-0.0002860874
21.60005,-0.0002855007
21.70005,-0.0002849498
21.80005,-0.0002843848
21.90005,-0.0002838018
22.00005,-0.0002832933
22.10005,-0.0002826265
22.20005,-0.000282135
22.30005,-0.0002816848
22.40005,-0.0002810294
22.50005,-0.0002804719
22.60005,-0.0002799878
22.70005,-0.0002795019
22.80005,-0.0002788615
22.90005,-0.0002782993
23.00005,-0.0002777277
23.10005,-0.0002772248
23.20005,-0.0002766795
23.30005,-0.0002761512
23.40005,-0.0002756069
23.50005,-0.0002751021
23.60005,-0.000274635
23.70005,-0.0002741161
23.80005,-0.0002737215
23.90005,-0.0002731565
24.00006,-0.0002725236
24.10006,-0.0002720716
24.20006,-0.0002716563
24.30006,-0.0002709953
24.40006,-0.0002705366
24.50006,-0.0002701025
24.60006,-0.0002695393
24.70006,-0.0002691259
24.80006,-0.0002686673
24.90006,-0.0002681503
25.00006,-0.000267734
25.10006,-0.000267314
25.20006,-0.0002667941
25.30006,-0.000266377
25.40006,-0.0002659259
25.50006,-0.0002654324
25.60006,-0.0002652121
25.70006,-0.0002646414
25.80006,-0.0002641178
25.90006,-0.0002638268
26.00006,-0.0002633634
26.10006,-0.0002627476
26.20006,-0.0002623388
26.30006,-0.0002618548
26.40006,-0.0002613886
26.50006,-0.00026101
26.60007,-0.0002606211
26.70007,-0.0002600938
26.80007,-0.0002597218
26.90007,-0.0002592565
27.00007,-0.0002588742
27.10007,-0.0002584486
27.20007,-0.0002580295
27.30007,-0.0002576321
27.40007,-0.0002571923
27.50007,-0.0002568128
27.60007,-0.0002563758
27.70007,-0.0002559916
27.80007,-0.0002555725
27.90007,-0.0002551666
28.00007,-0.0002547588
28.10007,-0.0002543539
28.20007,-0.0002539273
28.30007,-0.0002535214
28.40007,-0.0002531231
28.50007,-0.0002527784
28.60007,-0.0002524224
28.70007,-0.0002519732
28.80007,-0.0002516172
28.90007,-0.0002512886
29.00007,-0.000250812
29.10007,-0.0002504033
29.20008,-0.0002500973
29.30008,-0.0002496942
29.40008,-0.0002493486
29.50008,-0.0002489738
29.60008,-0.0002486056
29.70008,-0.0002482374
29.80008,-0.0002479416
29.90008,-0.0002475358
30.00008,-0.0002471968
30.10008,-0.0002467325
30.20008,-0.000246352
30.30008,-0.0002459706
30.40008,-0.0002456156
30.50008,-0.0002453623
30.60008,-0.0002450157
30.70008,-0.0002445703
30.80008,-0.0002442407
30.90008,-0.0002439289
31.00008,-0.000243524
31.10008,-0.0002431991
31.20008,-0.0002427716
31.30008,-0.0002423817
31.40008,-0.0002420973
31.50008,-0.000241746
31.60008,-0.0002413872
31.70008,-0.0002410642
31.80009,-0.0002407007
31.90009,-0.0002403701
32.00008,-0.0002400829
32.10008,-0.0002397071
32.20008,-0.0002394171
32.30008,-0.0002390903
32.40008,-0.0002387155
32.50008,-0.0002383963
32.60007,-0.0002381175
32.70007,-0.0002377747
32.80007,-0.0002374856
32.90007,-0.0002371861
33.00007,-0.0002368029
33.10007,-0.0002364958
33.20007,-0.0002363
33.30006,-0.0002359129
33.40006,-0.0002355485
33.50006,-0.000235282
33.60006,-0.0002349213
33.70006,-0.0002346312
33.80006,-0.0002344523
33.90005,-0.0002340285
34.00005,-0.0002336895
34.10005,-0.000233391
34.20005,-0.0002331169
34.30005,-0.0002327798
34.40005,-0.0002325095
34.50005,-0.0002321761
34.60004,-0.0002318484
34.70004,-0.000231596
34.80004,-0.000231306
34.90004,-0.0002309782
35.00004,-0.0002307616
35.10004,-0.0002305187
35.20004,-0.0002302154
35.30003,-0.0002299452
35.40003,-0.0002296551
35.50003,-0.0002294573
35.60003,-0.0002291061
35.70003,-0.0002287463
35.80003,-0.0002284459
35.90002,-0.0002281879
36.00002,-0.000227879
36.10002,-0.000227637
36.20002,-0.0002274147
36.30002,-0.000227152
36.40002,-0.0002269976
36.50002,-0.0002266435
36.60001,-0.0002262828
36.70001,-0.0002260407
36.80001,-0.0002256876
36.90001,-0.0002254682
37.00001,-0.0002252638
37.10001,-0.0002249606
37.2,-0.0002247355
37.3,-0.000224501
37.4,-0.000224129
37.5,-0.0002238361
37.6,-0.0002235979
37.7,-0.0002233578
37.8,-0.000223144
37.89999,-0.0002230037
37.99999,-0.0002227315
38.09999,-0.0002223774
38.19999,-0.0002220346
38.29999,-0.0002218661
38.39999,-0.0002216739
38.49998,-0.0002216871
38.59998,-0.0002211748
38.69998,-0.0002207755
38.79998,-0.0002204987
38.89998,-0.0002202406
38.99998,-0.0002198997
39.09998,-0.0002196831
39.19997,-0.0002194514
39.29997,-0.0002191972
39.39997,-0.0002189693
39.49997,-0.0002187282
39.59997,-0.0002186359
39.69997,-0.0002182903
39.79996,-0.00021802
39.89996,-0.0002177441
39.99996,-0.0002174974
40.09996,-0.0002173815
40.19996,-0.0002171414
40.29996,-0.0002168269
40.39996,-0.0002165085
40.49995,-0.0002162175
40.59995,-0.0002160706
40.69995,-0.000215773
40.79995,-0.0002154981
40.89995,-0.0002153464
40.99995,-0.000215112
41.09995,-0.0002148106
41.19994,-0.0002146392
41.29994,-0.0002144499
41.39994,-0.000214126
41.49994,-0.0002139432
41.59994,-0.0002137822
41.69994,-0.0002133839
41.79993,-0.0002132172
41.89993,-0.0002130006
41.99993,-0.0002127256
42.09993,-0.0002125297
42.19993,-0.0002122924
42.29993,-0.0002120306
42.39993,-0.0002119091
42.49992,-0.0002117613
42.59992,-0.0002114448
42.69992,-0.0002112471
42.79992,-0.0002109589
42.89992,-0.0002107056
42.99992,-0.0002104805
43.09991,-0.0002102573
43.19991,-0.000210021
43.29991,-0.0002098703
43.39991,-0.0002096725
43.49991,-0.0002095247
43.59991,-0.0002092996
43.69991,-0.000208953
43.7999,-0.0002086893
43.8999,-0.0002085161
43.9999,-0.0002083221
44.0999,-0.0002080753
44.1999,-0.0002079049
44.2999,-0.0002076431
44.39989,-0.000207467
44.49989,-0.0002073624
44.59989,-0.0002070507
44.69989,-0.0002067626
44.79989,-0.0002066109
44.89989,-0.000206367
44.99989,-0.0002061683
45.09988,-0.0002060195
45.19988,-0.0002057399
45.29988,-0.0002055458
45.39988,-0.0002053886
45.49988,-0.0002051494
45.59988,-0.0002048951
45.69987,-0.0002046992
45.79987,-0.0002045297
45.89987,-0.0002043546
45.99987,-0.0002041172
46.09987,-0.0002039647
46.19987,-0.0002037735
46.29987,-0.0002035286
46.39986,-0.0002034392
46.49986,-0.0002032904
46.59986,-0.0002028572
46.69986,-0.0002026792
46.79986,-0.0002025841
46.89986,-0.0002022969
46.99986,-0.0002020982
47.09985,-0.0002018656
47.19985,-0.0002016471
47.29985,-0.0002014747
47.39985,-0.0002013542
47.49985,-0.000201228
47.59985,-0.0002012459
47.69984,-0.0002009681
47.79984,-0.0002006375
47.89984,-0.0002004247
47.99984,-0.0002002929
48.09984,-0.0001999793
48.19984,-0.0001998173
48.29984,-0.0001996337
48.39983,-0.0001993991
48.49983,-0.0001992381
48.59983,-0.000199062
48.69983,-0.0001988228
48.79983,-0.0001986816
48.89983,-0.0001985516
48.99982,-0.000198287
49.09982,-0.0001981222
49.19982,-0.000197963
49.29982,-0.0001977078
49.39982,-0.0001976061
49.49982,-0.0001973754
49.59982,-0.0001971456
49.69981,-0.0001970307
49.79981,-0.0001968414
49.89981,-0.0001966766
49.99981,-0.0001965175
50.09981,-0.0001963093
50.19981,-0.000196072
50.2998,-0.0001959581
50.3998,-0.000195895
50.4998,-0.000195637
50.5998,-0.0001953723
50.6998,-0.0001951642
50.7998,-0.0001951322
50.8998,-0.0001948854
50.99979,-0.0001946105
51.09979,-0.00019452
51.19979,-0.0001943967
51.29979,-0.0001942121
51.39979,-0.0001940294
51.49979,-0.0001939522
51.59978,-0.0001936772
51.69978,-0.0001934135
51.79978,-0.0001932167
51.89978,-0.0001930161
51.99978,-0.00019284
52.09978,-0.0001927185
52.19978,-0.0001925095
52.29977,-0.0001923381
52.39977,-0.0001921478
52.49977,-0.0001920141
52.59977,-0.0001919039
52.69977,-0.000191612
52.79977,-0.0001915941
52.89977,-0.0001914735
52.99976,-0.0001911383
53.09976,-0.0001910922
53.19976,-0.0001910827
53.29976,-0.0001907437
53.39976,-0.0001905064
53.49976,-0.0001903699
53.59975,-0.0001903256
53.69975,-0.0001902747
53.79975,-0.0001900289
53.89975,-0.0001898811
53.99975,-0.0001896099
54.09975,-0.0001893914
54.19975,-0.0001892153
54.29974,-0.0001891164
54.39974,-0.0001889591
54.49974,-0.0001887915
54.59974,-0.0001886201
54.69974,-0.0001884393
54.79974,-0.0001882434
54.89973,-0.0001880588
54.99973,-0.0001878535
55.09973,-0.0001877528
55.19973,-0.0001875889
55.29973,-0.0001874712
55.39973,-0.0001872763
55.49973,-0.000187167
55.59972,-0.0001869674
55.69972,-0.0001868459
55.79972,-0.0001867479
55.89972,-0.000186617
55.99972,-0.0001863901
56.09972,-0.0001861255
56.19971,-0.000185988
56.29971,-0.0001859493
56.39971,-0.0001856678
56.49971,-0.0001854653
56.59971,-0.0001853928
56.69971,-0.0001852242
56.79971,-0.0001850443
56.8997,-0.0001849022
56.9997,-0.0001846658
57.0997,-0.000184565
57.1997,-0.000184469
57.2997,-0.0001842806
57.3997,-0.0001842147
57.49969,-0.000184064
57.59969,-0.0001839378
57.69969,-0.0001837532
57.79969,-0.0001835197
57.89969,-0.0001834359
57.99969,-0.0001835724
58.09969,-0.0001832118
58.19968,-0.0001828982
58.29968,-0.0001827409
58.39968,-0.0001826175
58.49968,-0.0001824329
58.59968,-0.000182383
58.69968,-0.0001821674
58.79967,-0.0001820195
58.89967,-0.0001819282
58.99967,-0.000181801
59.09967,-0.0001815072
59.19967,-0.0001815439
59.29967,-0.0001814987
59.39967,-0.0001812303
59.49966,-0.0001810693
59.59966,-0.000180865
59.69966,-0.0001807802
59.79966,-0.000180897
59.89966,-0.0001806446
59.99966,-0.0001803912
60.09966,-0.0001802792
60.19965,-0.0001801276
60.29965,-0.0001799034
60.39965,-0.0001797226
60.49965,-0.0001795833
60.59965,-0.0001794985
60.69965,-0.0001794307
60.79964,-0.0001795117
60.89964,-0.0001792226
60.99964,-0.0001789532
61.09964,-0.0001788798
61.19964,-0.0001786924
61.29964,-0.0001784437
61.39964,-0.0001783552
61.49963,-0.000178262
61.59963,-0.0001781076
61.69963,-0.0001779249
61.79963,-0.0001778881
61.89963,-0.0001776376
61.99963,-0.0001776348
62.09962,-0.0001774738
62.19962,-0.0001772157
62.29962,-0.0001771187
62.39962,-0.0001769794
62.49962,-0.0001769304
62.59962,-0.0001768758
62.69962,-0.0001766375
62.79961,-0.0001764011
62.89961,-0.0001764087
62.99961,-0.0001761874
63.09961,-0.0001759632
63.19961,-0.0001758841
63.29961,-0.0001757693
63.3996,-0.000175596
63.4996,-0.0001755941
63.5996,-0.0001753813
63.6996,-0.0001752353
63.7996,-0.000175062
63.8996,-0.0001749113
63.9996,-0.0001747889
64.09959,-0.0001747296
64.19959,-0.0001744913
64.29959,-0.0001743567
64.39959,-0.0001742418
64.49959,-0.000174125
64.59959,-0.0001739639
64.69958,-0.0001738208
64.79958,-0.0001736324
64.89958,-0.0001735336
64.99958,-0.0001734272
65.09958,-0.0001732379
65.19958,-0.0001730975
65.29958,-0.0001729751
65.39957,-0.0001728084
65.49957,-0.000172702
65.59957,-0.0001726361
65.69957,-0.0001724176
65.79957,-0.0001724336
65.89957,-0.0001721756
65.99957,-0.00017204
66.09956,-0.0001719364
66.19956,-0.0001717254
66.29956,-0.0001715908
66.39956,-0.0001715588
66.49956,-0.0001713836
66.59956,-0.0001713054
66.69955,-0.0001711849
66.79955,-0.000171038
66.89955,-0.0001710304
66.99955,-0.0001708431
67.09955,-0.0001705963
67.19955,-0.0001705087
67.29955,-0.0001703458
67.39954,-0.0001702196
67.49954,-0.0001701396
67.59954,-0.0001699465
67.69954,-0.0001698825
67.79954,-0.0001701848
67.89954,-0.0001699117
67.99953,-0.000169713
68.09953,-0.0001695199
68.19953,-0.0001693617
68.29953,-0.0001692007
68.39953,-0.0001691536
68.49953,-0.0001689728
68.59953,-0.000168856
68.69952,-0.0001687854
68.79952,-0.0001685697
68.89952,-0.000168388
68.99952,-0.0001683446
69.09952,-0.0001681968
69.19952,-0.0001680291
69.29951,-0.0001679331
69.39951,-0.0001678079
69.49951,-0.0001676741
69.59951,-0.0001675997
69.69951,-0.0001673784
69.79951,-0.0001673681
69.89951,-0.0001673087
69.9995,-0.000167174
70.0995,-0.000166998
70.1995,-0.0001668162
70.2995,-0.0001666646
70.3995,-0.0001665761
70.4995,-0.0001665148
70.59949,-0.0001663246
70.69949,-0.000166222
70.79949,-0.0001660948
70.89949,-0.0001659357
70.99949,-0.0001658086
71.09949,-0.0001656748
71.19949,-0.0001655571
71.29948,-0.0001654978
71.39948,-0.0001653377
71.49948,-0.0001651993
71.59948,-0.0001651098
71.69948,-0.0001649478
71.79948,-0.0001648442
71.89948,-0.0001647661
71.99947,-0.0001646088
72.09947,-0.000164557
72.19947,-0.0001644355
72.29947,-0.0001642274
72.39947,-0.0001641153
72.49947,-0.0001640626
72.59946,-0.0001639157
72.69946,-0.0001640824
72.79946,-0.0001639232
72.89946,-0.0001636021
72.99946,-0.0001635249
73.09946,-0.0001634307
73.19946,-0.000163199
73.29945,-0.0001631707
73.39945,-0.0001630314
73.49945,-0.0001628506
73.59945,-0.0001628685
73.69945,-0.0001627244
73.79945,-0.0001624664
73.89944,-0.000162408
73.99944,-0.0001623505
74.09944,-0.0001621716
74.19944,-0.000162133
74.29944,-0.0001620991
74.39944,-0.0001619267
74.49944,-0.0001617365
74.59943,-0.0001616169
74.69943,-0.0001615293
74.79943,-0.0001613928
74.89943,-0.0001613155
74.99943,-0.0001611733
75.09943,-0.0001610735
75.19942,-0.0001609539
75.29942,-0.0001608315
75.39942,-0.000160775
75.49942,-0.0001605895
75.59942,-0.0001605057
75.69942,-0.0001603804
75.79942,-0.0001602552
75.89941,-0.0001601497
75.99941,-0.0001600188
76.09941,-0.0001599114
76.19941,-0.0001598154
76.29941,-0.0001596458
76.39941,-0.0001596063
76.4994,-0.0001595253
76.5994,-0.0001594142
76.6994,-0.0001594754
76.7994,-0.0001593012
76.8994,-0.0001590253
76.9994,-0.0001589443
77.0994,-0.0001588915
77.19939,-0.0001587361
77.29939,-0.0001586034
77.39939,-0.0001585177
77.49939,-0.0001584103
77.59939,-0.0001582964
77.69939,-0.00015827
77.79939,-0.0001580835
77.89938,-0.000158108
77.99938,-0.0001580044
78.09938,-0.0001578387
78.19938,-0.000157753
78.29938,-0.0001577003
78.39938,-0.0001575731
78.49937,-0.000157446
78.59937,-0.0001573311
78.69937,-0.0001572369
78.79937,-0.0001571352
78.89937,-0.0001571079
78.99937,-0.0001569459
79.09937,-0.0001568094
79.19936,-0.0001567171
79.29936,-0.0001565862
79.39936,-0.0001564788
79.49936,-0.0001563592
79.59936,-0.0001562811
79.69936,-0.0001562076
79.79935,-0.0001561238
79.89935,-0.0001559967
79.99935,-0.0001558413
80.09935,-0.0001557207
80.19935,-0.0001556548
80.29935,-0.0001554796
80.39935,-0.0001553845
80.49934,-0.0001553082
80.59934,-0.0001552244
80.69934,-0.0001551199
80.79934,-0.0001551397
80.89934,-0.000154989
80.99934,-0.0001547912
81.09933,-0.000154747
81.19933,-0.0001546057
81.29933,-0.0001545275
81.39933,-0.0001544428
81.49933,-0.0001543053
81.59933,-0.0001542309
81.69933,-0.0001541735
81.79932,-0.0001539955
81.89932,-0.0001539597
81.99932,-0.0001537987
82.09932,-0.0001536838
82.19932,-0.0001536188
82.29932,-0.000153518
82.39931,-0.0001533476
82.49931,-0.0001533174
82.59931,-0.0001532383
82.69931,-0.0001530971
82.79931,-0.0001530726
82.89931,-0.0001529718
82.99931,-0.0001528428
83.0993,-0.0001527769
83.1993,-0.0001526224
83.2993,-0.0001525254
83.3993,-0.0001524294
83.4993,-0.0001523559
83.5993,-0.0001522231
83.6993,-0.0001521553
83.79929,-0.0001520414
83.89929,-0.0001519463
83.99929,-0.0001518841
84.09929,-0.000151805
84.19929,-0.0001516769
84.29929,-0.0001516072
84.39928,-0.0001515234
84.49928,-0.0001513087
84.59928,-0.0001512805
84.69928,-0.0001511448
84.79928,-0.0001510516
84.89928,-0.0001510554
84.99928,-0.0001510526
85.09927,-0.000150851
85.19927,-0.0001507041
85.29927,-0.000150593
85.39927,-0.000150545
85.49927,-0.0001506269
85.59927,-0.0001504988
85.69926,-0.0001503274
85.79926,-0.0001502041
85.89926,-0.0001501052
85.99926,-0.0001499366
86.09926,-0.0001498198
86.19926,-0.000149737
86.29926,-0.0001496861
86.39925,-0.0001495646
86.49925,-0.0001495562
86.59925,-0.0001495204
86.69925,-0.000149381
86.79925,-0.0001493141
86.89925,-0.000149203
86.99924,-0.0001490552
87.09924,-0.0001489224
87.19924,-0.0001488828
87.29924,-0.0001487576
87.39924,-0.0001486907
87.49924,-0.0001486238
87.59924,-0.0001485419
87.69923,-0.0001484703
87.79923,-0.0001483526
87.89923,-0.0001481624
87.99923,-0.0001481464
88.09923,-0.0001480936
88.19923,-0.0001479571
88.29922,-0.0001478563
88.39922,-0.0001477396
88.49922,-0.0001476539
88.59922,-0.0001476115
88.69922,-0.0001475305
88.79922,-0.0001473977
88.89922,-0.0001473224
88.99921,-0.0001472932
89.09921,-0.0001471896
89.19921,-0.0001470907
89.29921,-0.0001469984
89.39921,-0.0001468571
89.49921,-0.0001467536
89.59921,-0.0001466509
89.6992,-0.0001465737
89.7992,-0.0001464833
89.8992,-0.0001463599
89.9992,-0.0001462846
90.0992,-0.0001462007
90.1992,-0.0001461367
90.29919,-0.0001460435
90.39919,-0.0001459578
90.49919,-0.0001458109
90.59919,-0.0001457506
90.69919,-0.0001456517
90.79919,-0.0001455811
90.89919,-0.0001455105
90.99918,-0.0001453909
91.09918,-0.0001452995
91.19918,-0.0001451922
91.29918,-0.0001451366
91.39918,-0.0001449925
91.49918,-0.0001449398
91.59917,-0.0001448833
91.69917,-0.0001447599
91.79917,-0.0001446959
91.89917,-0.0001445866
91.99917,-0.0001444755
92.09917,-0.0001444388
92.19917,-0.0001443135
92.29916,-0.0001442269
92.39916,-0.0001441553
92.49916,-0.0001441591
92.59916,-0.0001440386
92.69916,-0.0001439943
92.79916,-0.0001439312
92.89915,-0.0001438304
92.99915,-0.0001437184
93.09915,-0.0001436119
93.19915,-0.0001434886
93.29915,-0.0001433972
93.39915,-0.0001432729
93.49915,-0.0001432108
93.59914,-0.0001431495
93.69914,-0.0001430196
93.79914,-0.0001429489
93.89914,-0.0001428765
93.99914,-0.0001427493
94.09914,-0.0001426203
94.19913,-0.0001426146
94.29913,-0.0001424932
94.39913,-0.0001424301
94.49913,-0.0001423726
94.59913,-0.0001422803
94.69913,-0.0001421701
94.79913,-0.0001420986
94.89912,-0.0001419818
94.99912,-0.0001418876
95.09912,-0.0001418443
95.19912,-0.0001417143
95.29912,-0.0001416249
95.39912,-0.0001415853
95.49911,-0.0001414893
95.59911,-0.0001414158
95.69911,-0.0001413329
95.79911,-0.0001412133
95.89911,-0.0001411559
95.99911,-0.0001410834
96.09911,-0.0001409657
96.1991,-0.0001409318
96.2991,-0.0001408169
96.3991,-0.0001406907
96.4991,-0.0001406436
96.5991,-0.000140588
96.6991,-0.0001405108
96.7991,-0.0001404308
96.89909,-0.0001403244
96.99909,-0.0001402594
97.09909,-0.0001402613
97.19909,-0.0001402095
97.29909,-0.0001400833
97.39909,-0.000139991
97.49908,-0.0001399166
97.59908,-0.0001398262
97.69908,-0.0001396934
97.79908,-0.0001396199
97.89908,-0.0001394956
97.99908,-0.0001394438
98.09908,-0.0001393732
98.19907,-0.0001393007
98.29907,-0.0001393026
98.39907,-0.0001391538
98.49907,-0.000139102
98.59907,-0.0001390558
98.69907,-0.0001388656
98.79906,-0.0001388845
98.89906,-0.0001388835
98.99906,-0.00013873
99.09906,-0.0001386613
99.19906,-0.0001385727
99.29906,-0.0001384757
99.39906,-0.000138391
99.49905,-0.0001383411
99.59905,-0.0001382045
99.69905,-0.0001382318
99.79905,-0.0001381433
99.89905,-0.0001379794
99.99905,-0.0001380378
100.099,-0.0001379361
100.199,-0.0001378758
100.299,-0.0001377148
100.399,-0.0001375971
100.499,-0.0001375161
100.599,-0.0001374304
100.699,-0.0001373334
100.799,-0.0001372289
100.899,-0.0001371554
100.999,-0.000137082
101.099,-0.0001370151
101.199,-0.0001369699
101.299,-0.0001368748
101.399,-0.0001367938
101.499,-0.0001367524
101.599,-0.0001366657
101.699,-0.0001365876
101.799,-0.0001365179
101.899,-0.0001364294
101.999,-0.0001363597
102.099,-0.0001362674
102.199,-0.0001361751
102.299,-0.0001360969
102.399,-0.0001360225
102.499,-0.0001359594
102.599,-0.0001359585
102.699,-0.0001358436
102.799,-0.0001357033
102.899,-0.0001356656
102.999,-0.0001355733
103.099,-0.0001354886
103.199,-0.0001354688
103.299,-0.0001353859
103.399,-0.0001352644
103.499,-0.0001352183
103.599,-0.0001351477
103.699,-0.0001350516
103.799,-0.0001349687
103.899,-0.0001348576
103.999,-0.0001347804
104.099,-0.0001347314
104.199,-0.000134721
104.299,-0.0001346137
104.399,-0.0001345562
104.499,-0.0001344263
104.599,-0.0001344065
104.699,-0.0001343189
104.799,-0.0001342031
104.899,-0.0001340957
104.999,-0.0001340929
105.099,-0.0001339978
105.199,-0.0001339196
105.299,-0.0001338292
105.399,-0.0001337482
105.499,-0.0001336908
105.599,-0.0001336145
105.699,-0.0001335241
105.799,-0.0001334902
105.899,-0.0001334441
105.999,-0.0001333348
106.099,-0.0001333103
106.199,-0.0001331983
106.299,-0.0001330796
106.3989,-0.0001329939
106.4989,-0.0001329365
106.5989,-0.0001329073
106.6989,-0.0001329704
106.7989,-0.0001327764
106.8989,-0.0001326455
106.9989,-0.0001326238
107.0989,-0.0001325419
107.1989,-0.0001324458
107.2989,-0.0001323319
107.3989,-0.00013225
107.4989,-0.0001321935
107.5989,-0.0001321511
107.6989,-0.0001321181
107.7989,-0.0001321388
107.8989,-0.000131958
107.9989,-0.000131829
108.0989,-0.0001318328
108.1989,-0.0001317565
108.2989,-0.0001316604
108.3989,-0.0001315776
108.4989,-0.0001314777
108.5989,-0.0001314278
108.6989,-0.000131393
108.7989,-0.000131295
108.8989,-0.000131183
108.9989,-0.0001311999
109.0989,-0.0001311029
109.1989,-0.0001310408
109.2989,-0.0001309438
109.3989,-0.000130827
109.4989,-0.0001307677
109.5989,-0.0001307554
109.6989,-0.0001306434
109.7989,-0.0001305652
109.8989,-0.0001305549
109.9989,-0.0001304352
110.0989,-0.0001302987
110.1989,-0.0001302864
110.2989,-0.0001302045
110.3989,-0.0001301301
110.4989,-0.0001300981
110.5989,-0.0001300096
110.6989,-0.0001298853
110.7989,-0.0001298768
110.8989,-0.000129792
110.9989,-0.0001297384
111.0989,-0.0001296517
111.1989,-0.000129567
111.2989,-0.00012947
111.3989,-0.0001294709
111.4989,-0.0001293758
111.5989,-0.0001293099
111.6989,-0.0001292807
111.7989,-0.0001292458
111.8989,-0.0001291356
111.9989,-0.0001289897
112.0989,-0.0001289322
112.1989,-0.0001288946
112.2989,-0.0001288004
112.3989,-0.0001287627
112.4989,-0.0001286535
112.5989,-0.000128597
112.6989,-0.0001286638
112.7989,-0.0001285348
112.8988,-0.0001284529
112.9988,-0.000128435
113.0988,-0.0001283446
113.1988,-0.000128225
113.2988,-0.0001282212
113.3988,-0.0001281515
113.4988,-0.0001281082
113.5988,-0.0001280489
113.6988,-0.0001279773
113.7988,-0.000127918
113.8988,-0.0001280272
113.9988,-0.0001278426
114.0988,-0.0001277532
114.1988,-0.0001276741
114.2988,-0.0001275903
114.3988,-0.00012753
114.4988,-0.0001275102
114.5988,-0.0001274584
114.6988,-0.0001274386
114.7988,-0.0001274208
114.8988,-0.000127287
114.9988,-0.0001271834
115.0988,-0.0001272154
115.1988,-0.000127174
115.2988,-0.0001271024
115.3988,-0.0001270299
115.4988,-0.0001269744
115.5988,-0.0001269226
115.6988,-0.0001268614
115.7988,-0.0001268227
115.8988,-0.000126755
115.9988,-0.000126706
116.0988,-0.0001265647
116.1988,-0.0001264884
116.2988,-0.0001264056
116.3988,-0.0001263623
116.4988,-0.0001263453
116.5988,-0.000126205
116.6988,-0.0001260957
116.7988,-0.000126076
116.8988,-0.0001260025
116.9988,-0.0001259742
117.0988,-0.0001258876
117.1988,-0.0001258038
117.2988,-0.0001257115
117.3988,-0.0001256625
117.4988,-0.0001256183
117.5988,-0.0001255203
117.6988,-0.0001254789
117.7988,-0.0001254036
117.8988,-0.0001253932
117.9988,-0.0001252868
118.0988,-0.0001252058
118.1988,-0.0001251182
118.2988,-0.0001250975
118.3988,-0.0001250024
118.4988,-0.0001249515
118.5988,-0.000124848
118.6988,-0.0001247745
118.7988,-0.0001247509
118.8988,-0.000124702
118.9988,-0.0001246106
119.0988,-0.000124572
119.1988,-0.0001244986
119.2988,-0.0001243884
119.3988,-0.0001243601
119.4987,-0.0001243516
119.5987,-0.000124233
119.6987,-0.0001241793
119.7987,-0.0001241106
119.8987,-0.0001240428
119.9987,-0.0001239759
120.0987,-0.0001239279
120.1987,-0.0001238083
120.2987,-0.0001237621
120.3987,-0.0001237226
120.4987,-0.0001236077
120.5987,-0.0001235606
120.6987,-0.0001235389
120.7987,-0.0001234382
120.8987,-0.0001234118
120.9987,-0.0001233468
121.0987,-0.0001232498
121.1987,-0.0001231914
121.2987,-0.0001231293
121.3987,-0.000123053
121.4987,-0.0001230295
121.5987,-0.0001229456
121.6987,-0.0001228486
121.7987,-0.000122827
121.8987,-0.0001227695
121.9987,-0.0001226688
122.0987,-0.0001226499
122.1987,-0.0001225812
122.2987,-0.0001224964
122.3987,-0.0001224249
122.4987,-0.000122375
122.5987,-0.0001223128
122.6987,-0.0001223128
122.7987,-0.0001222055
122.8987,-0.0001221226
122.9987,-0.0001220811
123.0987,-0.0001219954
123.1987,-0.0001219427
123.2987,-0.0001219116
123.3987,-0.0001218118
123.4987,-0.0001217365
123.5987,-0.0001217082
123.6987,-0.0001216564
123.7987,-0.000121583
123.8987,-0.0001215321
123.9987,-0.0001214765
124.0987,-0.0001213551
124.1987,-0.0001213522
124.2987,-0.0001212656
124.3987,-0.0001211893
124.4987,-0.000121146
124.5987,-0.0001210594
124.6987,-0.0001210076
124.7987,-0.0001209624
124.8987,-0.0001209143
124.9987,-0.0001208578
125.0987,-0.0001208202
125.1987,-0.0001207486
125.2987,-0.0001206638
125.3987,-0.0001206384
125.4987,-0.0001205612
125.5987,-0.0001204792
125.6987,-0.0001204435
125.7987,-0.0001204058
125.8987,-0.0001203239
125.9986,-0.0001202787
126.0986,-0.000120209
126.1986,-0.0001201365
126.2986,-0.0001201468
126.3986,-0.0001200621
126.4986,-0.0001200027
126.5986,-0.0001199622
126.6986,-0.0001198869
126.7986,-0.0001198238
126.8986,-0.0001197692
126.9986,-0.0001197296
127.0986,-0.00011961
127.1986,-0.0001195912
127.2986,-0.0001195479
127.3986,-0.0001194556
127.4986,-0.0001194537
127.5986,-0.0001193746
127.6986,-0.0001192682
127.7986,-0.0001192635
127.8986,-0.0001192051
127.9986,-0.0001191119
128.0986,-0.0001190676
128.1986,-0.0001190092
128.2986,-0.0001189583
128.3986,-0.0001188934
128.4986,-0.0001188001
128.5986,-0.0001187493
128.6987,-0.0001187069
128.7987,-0.0001186203
128.8987,-0.0001185525
128.9987,-0.0001185167
129.0987,-0.0001184413
129.1987,-0.0001184046
129.2987,-0.000118382
129.3987,-0.0001182699
129.4987,-0.0001181956
129.5987,-0.000118172
129.6987,-0.000118091
129.7987,-0.0001180543
129.8987,-0.0001180355
129.9987,-0.0001179177
130.0987,-0.0001178622
130.1987,-0.0001178462
130.2988,-0.0001177652
130.3988,-0.0001177416
130.4988,-0.0001177397
130.5988,-0.0001176635
130.6988,-0.0001176013
130.7988,-0.0001175184
130.8988,-0.00011751
130.9988,-0.0001174299
131.0988,-0.0001173913
131.1988,-0.0001172849
131.2988,-0.0001172595
131.3988,-0.0001172049
131.4988,-0.0001171502
131.5988,-0.0001170664
131.6988,-0.0001169722
131.7988,-0.000116993
131.8988,-0.0001169063
131.9989,-0.000116783
132.0989,-0.0001167688
132.1989,-0.0001167264
132.2989,-0.0001166869
132.3989,-0.0001168649
132.4989,-0.0001166662
132.5989,-0.0001165372
132.6989,-0.0001164816
132.7989,-0.0001163997
132.8989,-0.0001162895
132.9989,-0.0001162603
133.0989,-0.0001162151
133.1989,-0.0001161605
133.2989,-0.0001161256
133.3989,-0.0001160503
133.4989,-0.0001159684
133.599,-0.0001159194
133.699,-0.0001158864
133.799,-0.0001158064
133.899,-0.0001157894
133.999,-0.0001157584
134.099,-0.0001156877
134.199,-0.0001156331
134.299,-0.0001155408
134.399,-0.0001154928
134.499,-0.0001154918
134.599,-0.0001154014
134.699,-0.0001153252
134.799,-0.0001152931
134.899,-0.0001152376
134.999,-0.000115198
135.099,-0.0001151575
135.1991,-0.0001150455
135.2991,-0.0001150021
135.3991,-0.0001149711
135.4991,-0.0001149183
135.5991,-0.0001148637
135.6991,-0.0001148082
135.7991,-0.0001147337
135.8991,-0.0001146904
135.9991,-0.0001146641
136.0991,-0.0001145727
136.1991,-0.0001145294
136.2991,-0.0001144936
136.3991,-0.0001144267
136.4991,-0.0001143505
136.5991,-0.000114309
136.6991,-0.0001142318
136.7991,-0.0001141932
136.8992,-0.0001141857
136.9992,-0.0001140849
137.0992,-0.0001140246
137.1992,-0.0001139832
137.2992,-0.0001139295
137.3992,-0.0001138664
137.4992,-0.0001138514
137.5992,-0.0001137487
137.6992,-0.0001137186
137.7992,-0.0001137035
137.8992,-0.0001136263
137.9992,-0.0001135651
138.0992,-0.0001135057
138.1992,-0.0001134342
138.2992,-0.0001134219
138.3992,-0.0001133635
138.4993,-0.0001132458
138.5993,-0.0001132722
138.6993,-0.0001132543
138.7993,-0.0001132194
138.8993,-0.0001131093
138.9993,-0.0001130349
139.0993,-0.0001130113
139.1993,-0.0001129454
139.2993,-0.0001128644
139.3993,-0.0001127853
139.4993,-0.0001127335
139.5993,-0.0001127476
139.6993,-0.0001126695
139.7993,-0.0001125875
139.8993,-0.0001125781
139.9993,-0.0001124548
140.0993,-0.000112467
140.1994,-0.000112434
140.2994,-0.0001123625
140.3994,-0.0001122768
140.4994,-0.0001122768
140.5994,-0.000112176
140.6994,-0.0001121251
140.7994,-0.0001120969
140.8994,-0.0001119943
140.9994,-0.0001119745
141.0994,-0.0001119688
141.1994,-0.0001118577
141.2994,-0.0001118144
141.3994,-0.0001117833
141.4994,-0.000111692
141.5994,-0.0001116684
141.6994,-0.0001116213
141.7995,-0.0001115319
141.8995,-0.0001114848
141.9995,-0.000111448
142.0995,-0.0001113944
142.1995,-0.0001113407
142.2995,-0.0001113096
142.3995,-0.0001112361
142.4995,-0.00011119
142.5995,-0.0001111401
142.6995,-0.0001110525
142.7995,-0.0001110233
142.8995,-0.0001109744
142.9995,-0.0001109047
143.0995,-0.0001108868
143.1995,-0.0001108397
143.2995,-0.0001107465
143.3996,-0.0001107455
143.4996,-0.000110721
143.5996,-0.0001106777
143.6996,-0.0001106071
143.7996,-0.0001105223
143.8996,-0.0001104715
143.9996,-0.0001104781
144.0996,-0.0001104263
144.1996,-0.0001103707
144.2996,-0.0001102822
144.3996,-0.0001102398
144.4996,-0.0001101824
144.5996,-0.0001101503
144.6996,-0.0001101183
144.7996,-0.0001100694
144.8996,-0.0001100044
144.9996,-0.0001099686
145.0997,-0.0001099093
145.1997,-0.0001098622
145.2997,-0.0001098104
145.3997,-0.0001097718
145.4997,-0.0001097284
145.5997,-0.0001096644
145.6997,-0.0001096098
145.7997,-0.0001096022
145.8997,-0.0001095279
145.9997,-0.0001094817
146.0997,-0.0001094582
146.1997,-0.0001094224
146.2997,-0.0001093348
146.3997,-0.0001093037
146.4997,-0.0001092378
146.5997,-0.0001091935
146.6998,-0.0001091719
146.7998,-0.0001090862
146.8998,-0.0001090749
146.9998,-0.0001090608
147.0998,-0.0001089751
147.1998,-0.0001088912
147.2998,-0.0001088338
147.3998,-0.0001087999
147.4998,-0.0001087792
147.5998,-0.0001087189
147.6998,-0.000108669
147.7998,-0.0001086568
147.8998,-0.0001085852
147.9998,-0.0001084985
148.0998,-0.0001085042
148.1998,-0.000108459
148.2999,-0.0001083601
148.3999,-0.0001083733
148.4999,-0.0001083507
148.5999,-0.0001082838
148.6999,-0.0001081981
148.7999,-0.0001081397
148.8999,-0.0001081181
148.9999,-0.0001081068
149.0999,-0.0001080427
149.1999,-0.0001079947
149.2999,-0.0001079571
149.3999,-0.0001079693
149.4999,-0.0001078968
149.5999,-0.0001077809
149.6999,-0.0001077517
149.7999,-0.0001076764
149.8999,-0.0001075945
150,-0.0001075747
150.1,-0.0001075295
150.2,-0.0001074664
150.3,-0.000107472
150.4,-0.0001074014
150.5,-0.0001073732
150.6,-0.000107456
150.7,-0.0001073138
150.8,-0.0001072941
150.9,-0.000107231
151,-0.0001071632
151.1,-0.0001071425
151.2,-0.0001070916
151.3,-0.0001069955
151.4,-0.0001069456
151.5,-0.0001069466
151.6001,-0.000106859
151.7001,-0.0001068091
151.8001,-0.0001068223
151.9001,-0.000106778
152.0001,-0.0001066932
152.1001,-0.0001066706
152.2001,-0.000106601
152.3001,-0.0001065463
152.4001,-0.0001065454
152.5001,-0.0001064832
152.6001,-0.0001064098
152.7001,-0.0001063872
152.8001,-0.00010631
152.9001,-0.0001062723
153.0001,-0.0001062883
153.1001,-0.0001062704
153.2001,-0.0001061838
153.3002,-0.0001060868
153.4002,-0.0001060529
153.5002,-0.0001059973
153.6002,-0.0001059719
153.7002,-0.0001058965
153.8002,-0.000105841
153.9002,-0.0001058108
154.0002,-0.0001057543
154.1002,-0.0001057007
154.2002,-0.000105663
154.3002,-0.000105598
154.4002,-0.0001055905
154.5002,-0.0001055076
154.6002,-0.0001054907
154.7002,-0.0001054624
154.8002,-0.0001054163
154.9003,-0.0001053456
155.0003,-0.0001052872
155.1003,-0.000105275
155.2003,-0.0001052797
155.3003,-0.0001052119
155.4003,-0.000105162
155.5003,-0.0001051714
155.6003,-0.0001051064
155.7003,-0.0001049689
155.8003,-0.000104935
155.9003,-0.0001048908
156.0003,-0.000104838
156.1003,-0.0001048409
156.2003,-0.0001047636
156.3003,-0.0001047448
156.4003,-0.0001046883
156.5004,-0.0001046346
156.6004,-0.0001045894
156.7004,-0.0001045536
156.8004,-0.0001044708
156.9004,-0.0001044566
157.0004,-0.0001044576
157.1004,-0.0001044811
157.2004,-0.0001044303
157.3004,-0.0001043568
157.4004,-0.000104321
157.5004,-0.0001042749
157.6004,-0.0001042683
157.7004,-0.0001043191
157.8004,-0.0001041703
157.9004,-0.0001041882
158.0004,-0.0001041506
158.1004,-0.0001040884
158.2005,-0.0001040121
158.3005,-0.0001039763
158.4005,-0.0001038615
158.5005,-0.0001037871
158.6005,-0.0001037937
158.7005,-0.0001037889
158.8005,-0.0001037108
158.9005,-0.0001036439
159.0005,-0.0001036034
159.1005,-0.0001035931
159.2005,-0.000103578
159.3005,-0.0001035187
159.4005,-0.0001034725
159.5005,-0.0001034509
159.6005,-0.0001033906
159.7005,-0.0001034141
159.8006,-0.0001033633
159.9006,-0.0001032578
160.0006,-0.0001031815
160.1006,-0.0001031778
160.2006,-0.0001031297
160.3006,-0.0001030761
160.4006,-0.0001030525
160.5006,-0.0001029951
160.6006,-0.0001029508
160.7006,-0.0001029254
160.8006,-0.0001028783
160.9006,-0.0001028048
161.0006,-0.0001027794
161.1006,-0.000102705
161.2006,-0.0001026513
161.3006,-0.0001026683
161.4007,-0.0001025901
161.5007,-0.000102528
161.6007,-0.0001024846
161.7007,-0.0001024055
161.8007,-0.0001023782
161.9007,-0.00010235
162.0007,-0.0001022831
162.1007,-0.0001022087
162.2007,-0.0001022304
162.3007,-0.0001021607
162.4007,-0.0001020948
162.5007,-0.0001020675
162.6007,-0.0001020034
162.7007,-0.0001020345
162.8007,-0.0001020147
162.9007,-0.000102043
163.0007,-0.0001019771
163.1008,-0.000101848
163.2008,-0.0001017849
163.3008,-0.0001017181
163.4008,-0.0001016776
163.5008,-0.0001016201
163.6008,-0.0001015862
163.7008,-0.0001015429
163.8008,-0.0001015024
163.9008,-0.0001014911
164.0008,-0.0001014224
164.1008,-0.0001013922
164.2008,-0.0001013489
164.3008,-0.0001012924
164.4008,-0.0001012679
164.5008,-0.0001012265
164.6008,-0.0001011879
164.7009,-0.0001011606
164.8009,-0.0001011361
164.9009,-0.0001010673
165.0009,-0.0001010485
165.1009,-0.0001009553
165.2009,-0.0001009129
165.3009,-0.0001009063
165.4009,-0.0001008762
165.5009,-0.0001007999
165.6009,-0.0001007396
165.7009,-0.0001007198
165.8009,-0.0001006605
165.9009,-0.0001006511
166.0009,-0.0001006002
166.1009,-0.0001005522
166.2009,-0.0001005202
166.3009,-0.0001004844
166.401,-0.0001004081
166.501,-0.0001004194
166.601,-0.0001003356
166.701,-0.0001002932
166.801,-0.000100314
166.901,-0.0001002386
167.001,-0.000100168
167.101,-0.0001001105
167.201,-0.0001000635
167.301,-0.000100054
167.401,-0.0001000465
167.501,-9.996458E-05
167.601,-9.994573E-05
167.701,-9.99222E-05
167.801,-9.980636E-05
167.901,-9.978282E-05
168.0011,-9.976775E-05
168.1011,-9.970936E-05
168.2011,-9.971407E-05
168.3011,-9.964439E-05
168.4011,-9.963967E-05
168.5011,-9.960859E-05
168.6011,-9.951254E-05
168.7011,-9.945604E-05
168.8011,-9.942403E-05
168.9011,-9.93694E-05
169.0011,-9.938634E-05
169.1011,-9.933832E-05
169.2011,-9.92724E-05
169.3011,-9.925733E-05
169.4011,-9.918388E-05
169.5011,-9.914338E-05
169.6012,-9.913679E-05
169.7012,-9.906616E-05
169.8012,-9.905769E-05
169.9012,-9.904544E-05
170.0012,-9.89588E-05
170.1012,-9.892302E-05
170.2012,-9.886934E-05
170.3012,-9.879588E-05
170.4012,-9.87375E-05
170.5012,-9.877046E-05
170.6012,-9.87215E-05
170.7012,-9.864238E-05
170.8012,-9.862448E-05
170.9012,-9.858964E-05
171.0012,-9.852844E-05
171.1012,-9.852749E-05
171.2012,-9.84578E-05
171.3013,-9.842766E-05
171.4013,-9.848793E-05
171.5013,-9.842296E-05
171.6013,-9.834857E-05
171.7013,-9.829959E-05
171.8013,-9.826286E-05
171.9013,-9.822143E-05
172.0013,-9.822708E-05
172.1013,-9.821202E-05
172.2013,-9.808582E-05
172.3013,-9.807358E-05
172.4013,-9.808205E-05
172.5013,-9.798506E-05
172.6013,-9.791066E-05
172.7013,-9.787393E-05
172.8013,-9.782779E-05
172.9014,-9.786074E-05
173.0014,-9.794832E-05
173.1014,-9.783626E-05
173.2014,-9.770913E-05
173.3014,-9.771572E-05
173.4014,-9.762249E-05
173.5014,-9.754244E-05
173.6014,-9.752832E-05
173.7014,-9.750948E-05
173.8014,-9.747463E-05
173.9014,-9.741625E-05
174.0014,-9.741154E-05
174.1014,-9.73541E-05
174.2014,-9.733997E-05
174.3014,-9.728158E-05
174.4014,-9.721378E-05
174.5014,-9.723826E-05
174.6015,-9.720059E-05
174.7015,-9.715257E-05
174.8015,-9.710265E-05
174.9015,-9.707722E-05
175.0015,-9.704239E-05
175.1015,-9.701225E-05
175.2015,-9.693691E-05
175.3015,-9.688135E-05
175.4015,-9.692843E-05
175.5015,-9.681542E-05
175.6015,-9.678058E-05
175.7015,-9.672314E-05
175.8015,-9.666475E-05
175.9015,-9.664686E-05
176.0015,-9.666381E-05
176.1015,-9.656586E-05
176.2016,-9.652726E-05
176.3016,-9.650276E-05
176.4016,-9.644533E-05
176.5016,-9.640294E-05
176.6016,-9.638412E-05
176.7016,-9.630312E-05
176.8016,-9.629087E-05
176.9016,-9.628711E-05
177.0016,-9.624285E-05
177.1016,-9.618446E-05
177.2016,-9.615056E-05
177.3016,-9.608652E-05
177.4016,-9.611384E-05
177.5016,-9.612514E-05
177.6016,-9.601872E-05
177.7016,-9.59641E-05
177.8017,-9.594904E-05
177.9017,-9.588499E-05
178.0017,-9.586992E-05
178.1017,-9.585015E-05
178.2017,-9.57814E-05
178.3017,-9.57701E-05
178.4017,-9.575691E-05
178.5017,-9.569759E-05
178.6017,-9.566745E-05
178.7017,-9.562508E-05
178.8017,-9.557893E-05
178.9017,-9.552996E-05
179.0017,-9.551112E-05
179.1017,-9.545085E-05
179.2017,-9.542071E-05
179.3017,-9.539058E-05
179.4017,-9.538399E-05
179.5018,-9.531336E-05
179.6018,-9.527852E-05
179.7018,-9.531713E-05
179.8018,-9.526251E-05
179.9018,-9.518058E-05
180.0018,-9.509959E-05
180.1018,-9.508075E-05
180.2018,-9.50525E-05
180.3018,-9.502048E-05
180.4018,-9.496963E-05
180.5018,-9.49216E-05
180.6018,-9.492537E-05
180.7018,-9.484909E-05
180.8018,-9.478693E-05
180.9018,-9.478788E-05
181.0018,-9.472949E-05
181.1019,-9.470124E-05
181.2019,-9.467205E-05
181.3019,-9.462025E-05
181.4019,-9.45694E-05
181.5019,-9.458918E-05
181.6019,-9.453455E-05
181.7019,-9.448464E-05
181.8019,-9.44432E-05
181.9019,-9.439423E-05
182.0019,-9.435938E-05
182.1019,-9.437164E-05
182.2019,-9.430759E-05
182.3019,-9.425297E-05
182.4019,-9.423697E-05
182.5019,-9.417481E-05
182.6019,-9.413715E-05
182.702,-9.412866E-05
182.802,-9.408535E-05
182.902,-9.405427E-05
183.002,-9.403638E-05
183.102,-9.397328E-05
183.202,-9.390736E-05
183.302,-9.391583E-05
183.402,-9.38923E-05
183.502,-9.385179E-05
183.602,-9.378964E-05
183.702,-9.375103E-05
183.802,-9.370018E-05
183.902,-9.369641E-05
184.002,-9.364744E-05
184.102,-9.361542E-05
184.202,-9.357964E-05
184.302,-9.353255E-05
184.4021,-9.349394E-05
184.5021,-9.348075E-05
184.6021,-9.340918E-05
184.7021,-9.337527E-05
184.8021,-9.339411E-05
184.9021,-9.336681E-05
185.0021,-9.330842E-05
185.1021,-9.326792E-05
185.2021,-9.323779E-05
185.3021,-9.32246E-05
185.4021,-9.321613E-05
185.5021,-9.314267E-05
185.6021,-9.309182E-05
185.7021,-9.306827E-05
185.8021,-9.301554E-05
185.9021,-9.299576E-05
186.0022,-9.296186E-05
186.1022,-9.288463E-05
186.2022,-9.289123E-05
186.3022,-9.28724E-05
186.4022,-9.282342E-05
186.5022,-9.278765E-05
186.6022,-9.273773E-05
186.7022,-9.270571E-05
186.8022,-9.269724E-05
186.9022,-9.262943E-05
187.0022,-9.258046E-05
187.1022,-9.253243E-05
187.2022,-9.25136E-05
187.3022,-9.250511E-05
187.4022,-9.250041E-05
187.5022,-9.242224E-05
187.6022,-9.236197E-05
187.7023,-9.234597E-05
187.8023,-9.228664E-05
187.9023,-9.223107E-05
188.0023,-9.222826E-05
188.1023,-9.221036E-05
188.2023,-9.219058E-05
188.3023,-9.210959E-05
188.4023,-9.206345E-05
188.5023,-9.207004E-05
188.6023,-9.200129E-05
188.7023,-9.196551E-05
188.8023,-9.19608E-05
188.9023,-9.190336E-05
189.0023,-9.183838E-05
189.1023,-9.184779E-05
189.2023,-9.177528E-05
189.3024,-9.170747E-05
189.4024,-9.170559E-05
189.5024,-9.167734E-05
189.6024,-9.161895E-05
189.7024,-9.159729E-05
189.8024,-9.155114E-05
189.9024,-9.148617E-05
190.0024,-9.150124E-05
190.1024,-9.147016E-05
190.2024,-9.138823E-05
190.3024,-9.135338E-05
190.4024,-9.131383E-05
190.5024,-9.129311E-05
190.6024,-9.128181E-05
190.7024,-9.125544E-05
190.8024,-9.120647E-05
190.9025,-9.115939E-05
191.0025,-9.114809E-05
191.1025,-9.107369E-05
191.2025,-9.110099E-05
191.3025,-9.102943E-05
191.4025,-9.09861E-05
191.5025,-9.096539E-05
191.6025,-9.092018E-05
191.7025,-9.089852E-05
191.8025,-9.090701E-05
191.9025,-9.083637E-05
192.0025,-9.08166E-05
192.1025,-9.0794E-05
192.2025,-9.074126E-05
192.3025,-9.067816E-05
192.4025,-9.06631E-05
192.5025,-9.064331E-05
192.6026,-9.061224E-05
192.7026,-9.057175E-05
192.8026,-9.050959E-05
192.9026,-9.051995E-05
193.0026,-9.049829E-05
193.1026,-9.055103E-05
193.2026,-9.043897E-05
193.3026,-9.038057E-05
193.4026,-9.035891E-05
193.5026,-9.034007E-05
193.6026,-9.027039E-05
193.7026,-9.023838E-05
193.8026,-9.017527E-05
193.9026,-9.017904E-05
194.0026,-9.012066E-05
194.1026,-9.009994E-05
194.2027,-9.006981E-05
194.3027,-9.001236E-05
194.4027,-8.998034E-05
194.5027,-8.994173E-05
194.6027,-8.991818E-05
194.7027,-8.990688E-05
194.8027,-8.988052E-05
194.9027,-8.982401E-05
195.0027,-8.97854E-05
195.1027,-8.979576E-05
195.2027,-8.977315E-05
195.3027,-8.973078E-05
195.4027,-8.966486E-05
195.5027,-8.965073E-05
195.6027,-8.962624E-05
195.7027,-8.960553E-05
195.8027,-8.956127E-05
195.9028,-8.954337E-05
196.0028,-8.948405E-05
196.1028,-8.947651E-05
196.2028,-8.940494E-05
196.3028,-8.936445E-05
196.4028,-8.931453E-05
196.5028,-8.928346E-05
196.6028,-8.925332E-05
196.7028,-8.92392E-05
196.8028,-8.91921E-05
196.9028,-8.914785E-05
197.0028,-8.912242E-05
197.1028,-8.910358E-05
197.2028,-8.908476E-05
197.3028,-8.902919E-05
197.4028,-8.896233E-05
197.5029,-8.896044E-05
197.6029,-8.895856E-05
197.7029,-8.888511E-05
197.8029,-8.887757E-05
197.9029,-8.880788E-05
198.0029,-8.876738E-05
198.1029,-8.874196E-05
198.2029,-8.873349E-05
198.3029,-8.865155E-05
198.4029,-8.863083E-05
198.5029,-8.864026E-05
198.6029,-8.85668E-05
198.7029,-8.853196E-05
198.8029,-8.853478E-05
198.9029,-8.845191E-05
199.0029,-8.842648E-05
199.103,-8.844626E-05
199.203,-8.837092E-05
199.303,-8.837845E-05
199.403,-8.840859E-05
199.503,-8.829935E-05
199.603,-8.827674E-05
199.703,-8.824756E-05
199.803,-8.820046E-05
199.903,-8.814396E-05
200.003,-8.816562E-05
200.103,-8.809499E-05
200.203,-8.805355E-05
200.303,-8.807993E-05
200.403,-8.803001E-05
200.503,-8.801306E-05
200.603,-8.796127E-05
200.703,-8.790759E-05
200.8031,-8.789158E-05
200.9031,-8.791324E-05
201.0031,-8.785391E-05
201.1031,-8.780965E-05
201.2031,-8.776256E-05
201.3031,-8.774373E-05
201.4031,-8.77296E-05
201.5031,-8.772018E-05
201.6031,-8.764202E-05
201.7031,-8.759964E-05
201.8031,-8.759023E-05
201.9031,-8.755632E-05
202.0031,-8.754784E-05
202.1031,-8.753372E-05
202.2031,-8.746121E-05
202.3031,-8.749228E-05
202.4032,-8.743296E-05
202.5032,-8.74113E-05
202.6032,-8.740753E-05
202.7032,-8.732278E-05
202.8032,-8.728416E-05
202.9032,-8.727662E-05
203.0032,-8.728133E-05
203.1032,-8.731147E-05
203.2032,-8.72286E-05
203.3032,-8.717021E-05
203.4032,-8.719375E-05
203.5032,-8.705343E-05
203.6032,-8.698093E-05
203.7032,-8.697904E-05
203.8032,-8.696303E-05
203.9032,-8.693196E-05
204.0033,-8.6915E-05
204.1033,-8.684437E-05
204.2033,-8.681706E-05
204.3033,-8.682554E-05
204.4033,-8.680388E-05
204.5033,-8.673796E-05
204.6033,-8.674643E-05
204.7033,-8.672948E-05
204.8033,-8.668898E-05
204.9033,-8.664096E-05
205.0033,-8.662024E-05
205.1033,-8.658446E-05
205.2033,-8.658163E-05
205.3033,-8.65449E-05
205.4033,-8.650441E-05
205.5033,-8.647898E-05
205.6033,-8.644697E-05
205.7034,-8.645168E-05
205.8034,-8.642719E-05
205.9034,-8.635467E-05
206.0034,-8.632736E-05
206.1034,-8.628875E-05
206.2034,-8.626897E-05
206.3034,-8.624544E-05
206.4034,-8.621813E-05
206.5034,-8.614278E-05
206.6034,-8.6107E-05
206.7034,-8.612018E-05
206.8034,-8.605803E-05
206.9034,-8.603731E-05
207.0034,-8.601565E-05
207.1034,-8.596668E-05
207.2034,-8.592336E-05
207.3035,-8.593655E-05
207.4035,-8.586873E-05
207.5035,-8.583484E-05
207.6035,-8.581788E-05
207.7035,-8.578963E-05
207.8035,-8.575761E-05
207.9035,-8.574161E-05
208.0035,-8.567192E-05
208.1035,-8.566156E-05
208.2035,-8.562672E-05
208.3035,-8.560412E-05
208.4035,-8.55655E-05
208.5035,-8.552877E-05
208.6035,-8.549487E-05
208.7035,-8.545531E-05
208.8035,-8.545438E-05
208.9035,-8.543648E-05
209.0036,-8.536491E-05
209.1036,-8.533196E-05
209.2036,-8.531877E-05
209.3036,-8.529899E-05
209.4036,-8.525755E-05
209.5036,-8.521141E-05
209.6036,-8.519822E-05
209.7036,-8.514549E-05
209.8036,-8.512665E-05
209.9036,-8.511818E-05
210.0036,-8.505414E-05
210.1036,-8.502495E-05
210.2036,-8.502306E-05
210.3036,-8.499105E-05
210.4036,-8.495809E-05
210.5036,-8.492701E-05
210.6037,-8.488557E-05
210.7037,-8.484131E-05
210.8037,-8.484414E-05
210.9037,-8.479328E-05
211.0037,-8.475844E-05
211.1037,-8.474432E-05
211.2037,-8.471888E-05
211.3037,-8.468969E-05
211.4037,-8.465014E-05
211.5037,-8.459834E-05
211.6037,-8.458515E-05
211.7037,-8.455784E-05
211.8037,-8.454843E-05
211.9037,-8.449287E-05
212.0037,-8.445426E-05
212.1037,-8.443825E-05
212.2038,-8.441752E-05
212.3038,-8.439022E-05
212.4038,-8.434879E-05
212.5038,-8.43356E-05
212.6038,-8.432242E-05
212.7038,-8.425084E-05
212.8038,-8.425273E-05
212.9038,-8.418586E-05
213.0038,-8.416986E-05
213.1038,-8.413124E-05
213.2038,-8.408039E-05
213.3038,-8.406721E-05
213.4038,-8.407191E-05
213.5038,-8.400599E-05
213.6038,-8.395797E-05
213.7038,-8.396927E-05
213.8038,-8.392971E-05
213.9039,-8.390335E-05
214.0039,-8.387227E-05
214.1039,-8.3812E-05
214.2039,-8.379693E-05
214.3039,-8.38054E-05
214.4039,-8.377055E-05
214.5039,-8.373007E-05
214.6039,-8.368298E-05
214.7039,-8.363966E-05
214.8039,-8.363683E-05
214.9039,-8.36406E-05
215.0039,-8.356526E-05
215.1039,-8.356055E-05
215.2039,-8.358316E-05
215.3039,-8.354643E-05
215.4039,-8.349369E-05
215.504,-8.344661E-05
215.604,-8.340422E-05
215.704,-8.337503E-05
215.804,-8.335902E-05
215.904,-8.329687E-05
216.004,-8.32592E-05
216.104,-8.324602E-05
216.204,-8.321871E-05
216.304,-8.317821E-05
216.404,-8.316221E-05
216.504,-8.312736E-05
216.604,-8.315749E-05
216.704,-8.31283E-05
216.804,-8.307933E-05
216.904,-8.30492E-05
217.004,-8.301435E-05
217.104,-8.296539E-05
217.2041,-8.294183E-05
217.3041,-8.291358E-05
217.4041,-8.289475E-05
217.5041,-8.285802E-05
217.6041,-8.28439E-05
217.7041,-8.281094E-05
217.8041,-8.27855E-05
217.9041,-8.275631E-05
218.0041,-8.274878E-05
218.1041,-8.269887E-05
218.2041,-8.264519E-05
218.3041,-8.263483E-05
218.4041,-8.260941E-05
218.5041,-8.256138E-05
218.6041,-8.256043E-05
218.7041,-8.253689E-05
218.8042,-8.250487E-05
218.9042,-8.246909E-05
219.0042,-8.244272E-05
219.1042,-8.243424E-05
219.2042,-8.240034E-05
219.3042,-8.238433E-05
219.4042,-8.235608E-05
219.5042,-8.231653E-05
219.6042,-8.231371E-05
219.7042,-8.225155E-05
219.8042,-8.22459E-05
219.9042,-8.222895E-05
220.0042,-8.220541E-05
220.1042,-8.216962E-05
220.2042,-8.213195E-05
220.3042,-8.210463E-05
220.4043,-8.213759E-05
220.5043,-8.206132E-05
220.6043,-8.205661E-05
220.7043,-8.211123E-05
220.8043,-8.205943E-05
220.9043,-8.198504E-05
221.0043,-8.193042E-05
221.1043,-8.186355E-05
221.2043,-8.183813E-05
221.3043,-8.185225E-05
221.4043,-8.180611E-05
221.5043,-8.173642E-05
221.6043,-8.170911E-05
221.7043,-8.16931E-05
221.8043,-8.16639E-05
221.9043,-8.165073E-05
222.0043,-8.164414E-05
222.1044,-8.164131E-05
222.2044,-8.162718E-05
222.3044,-8.161494E-05
222.4044,-8.161777E-05
222.5044,-8.156503E-05
222.6044,-8.149533E-05
222.7044,-8.14652E-05
222.8044,-8.143789E-05
222.9044,-8.141152E-05
223.0044,-8.137009E-05
223.1044,-8.133901E-05
223.2044,-8.131076E-05
223.3044,-8.129381E-05
223.4044,-8.126273E-05
223.5044,-8.123447E-05
223.6044,-8.12147E-05
223.7045,-8.119963E-05
223.8045,-8.119022E-05
223.9045,-8.117609E-05
224.0045,-8.112806E-05
224.1045,-8.108474E-05
224.2045,-8.10838E-05
224.3045,-8.104237E-05
224.4045,-8.102071E-05
224.5045,-8.100376E-05
224.6045,-8.094537E-05
224.7045,-8.09416E-05
224.8045,-8.092183E-05
224.9045,-8.08898E-05
225.0045,-8.089451E-05
225.1045,-8.084743E-05
225.2045,-8.083236E-05
225.3046,-8.081918E-05
225.4046,-8.075984E-05
225.5046,-8.077209E-05
225.6046,-8.07024E-05
225.7046,-8.066944E-05
225.8046,-8.065721E-05
225.9046,-8.062612E-05
226.0046,-8.058751E-05
226.1046,-8.056867E-05
226.2046,-8.053948E-05
226.3046,-8.049804E-05
226.4046,-8.051594E-05
226.5046,-8.046226E-05
226.6046,-8.044531E-05
226.7046,-8.044342E-05
226.8046,-8.042836E-05
226.9046,-8.03841E-05
227.0047,-8.032571E-05
227.1047,-8.032571E-05
227.2047,-8.030875E-05
227.3047,-8.027203E-05
227.4047,-8.019951E-05
227.5047,-8.021553E-05
227.6047,-8.0208E-05
227.7047,-8.015808E-05
227.8047,-8.013453E-05
227.9047,-8.010817E-05
228.0047,-8.004413E-05
228.1047,-8.00705E-05
228.2047,-8.00413E-05
228.3047,-7.99961E-05
228.4047,-7.99622E-05
228.5047,-7.994337E-05
228.6048,-7.993959E-05
228.7048,-7.993301E-05
228.8048,-7.990852E-05
228.9048,-7.985107E-05
229.0048,-7.983601E-05
229.1048,-7.983506E-05
229.2048,-7.982471E-05
229.3048,-7.982E-05
229.4048,-7.975313E-05
229.5048,-7.970793E-05
229.6048,-7.97164E-05
229.7048,-7.966837E-05
229.8048,-7.964954E-05
229.9048,-7.961565E-05
230.0048,-7.956667E-05
230.1048,-7.955443E-05
230.2048,-7.954972E-05
230.3049,-7.952335E-05
230.4049,-7.946779E-05
230.5049,-7.945273E-05
230.6049,-7.943388E-05
230.7049,-7.942729E-05
230.8049,-7.941034E-05
230.9049,-7.936797E-05
231.0049,-7.93077E-05
231.1049,-7.932182E-05
231.2049,-7.929451E-05
231.3049,-7.924836E-05
231.4049,-7.921164E-05
231.5049,-7.920599E-05
231.6049,-7.917868E-05
231.7049,-7.919092E-05
231.8049,-7.913253E-05
231.905,-7.911371E-05
232.005,-7.907885E-05
232.105,-7.907415E-05
232.205,-7.902141E-05
232.305,-7.903083E-05
232.405,-7.899692E-05
232.505,-7.893759E-05
232.605,-7.894042E-05
232.705,-7.892253E-05
232.805,-7.887732E-05
232.905,-7.886791E-05
233.005,-7.884436E-05
233.105,-7.882082E-05
233.205,-7.878786E-05
233.305,-7.874265E-05
233.405,-7.871158E-05
233.5051,-7.871535E-05
233.6051,-7.868239E-05
233.7051,-7.865319E-05
233.8051,-7.864378E-05
233.9051,-7.861741E-05
234.0051,-7.86127E-05
234.1051,-7.856938E-05
234.2051,-7.857974E-05
234.3051,-7.8527E-05
234.4051,-7.847615E-05
234.5051,-7.848367E-05
234.6051,-7.844036E-05
234.7051,-7.840552E-05
234.8051,-7.840081E-05
234.9051,-7.835938E-05
235.0051,-7.834713E-05
235.1051,-7.829157E-05
235.2052,-7.828874E-05
235.3052,-7.825955E-05
235.4052,-7.824261E-05
235.5052,-7.822188E-05
235.6052,-7.818326E-05
235.7052,-7.815407E-05
235.8052,-7.814183E-05
235.9052,-7.812017E-05
236.0052,-7.809851E-05
236.1052,-7.807874E-05
236.2052,-7.8026E-05
236.3052,-7.8026E-05
236.4052,-7.801187E-05
236.5052,-7.799493E-05
236.6052,-7.798362E-05
236.7052,-7.793842E-05
236.8053,-7.790735E-05
236.9053,-7.791205E-05
237.0053,-7.787155E-05
237.1053,-7.781976E-05
237.2053,-7.779057E-05
237.3053,-7.776703E-05
237.4053,-7.776421E-05
237.5053,-7.771805E-05
237.6053,-7.770016E-05
237.7053,-7.766532E-05
237.8053,-7.764271E-05
237.9053,-7.763519E-05
238.0053,-7.760694E-05
238.1053,-7.758527E-05
238.2053,-7.756078E-05
238.3053,-7.752312E-05
238.4053,-7.751276E-05
238.5054,-7.747697E-05
238.6054,-7.74506E-05
238.7054,-7.74459E-05
238.8054,-7.740634E-05
238.9054,-7.736961E-05
239.0054,-7.736773E-05
239.1054,-7.734136E-05
239.2054,-7.731499E-05
239.3054,-7.727544E-05
239.4054,-7.726037E-05
239.5054,-7.724718E-05
239.6054,-7.723023E-05
239.7054,-7.719633E-05
239.8054,-7.716337E-05
239.9054,-7.716526E-05
240.0054,-7.715396E-05
240.1055,-7.713324E-05
240.2055,-7.709557E-05
240.3055,-7.704284E-05
240.4055,-7.702212E-05
240.5055,-7.70287E-05
240.6055,-7.697879E-05
240.7055,-7.695808E-05
240.8055,-7.695337E-05
240.9055,-7.693265E-05
241.0055,-7.687709E-05
241.1055,-7.686767E-05
241.2055,-7.684225E-05
241.3055,-7.679045E-05
241.4055,-7.67961E-05
241.5055,-7.676125E-05
241.6055,-7.674242E-05
241.7056,-7.672641E-05
241.8056,-7.669438E-05
241.9056,-7.665861E-05
242.0056,-7.665955E-05
242.1056,-7.661811E-05
242.2056,-7.659927E-05
242.3056,-7.659551E-05
242.4056,-7.654089E-05
242.5056,-7.656067E-05
242.6056,-7.653148E-05
242.7056,-7.649569E-05
242.8056,-7.645896E-05
242.9056,-7.643636E-05
243.0056,-7.641658E-05
243.1056,-7.641658E-05
243.2056,-7.635536E-05
243.3056,-7.631676E-05
243.4057,-7.6329E-05
243.5057,-7.630169E-05
243.6057,-7.625084E-05
243.7057,-7.626403E-05
243.8057,-7.62659E-05
243.9057,-7.623483E-05
244.0057,-7.620281E-05
244.1057,-7.614819E-05
244.2057,-7.614254E-05
244.3057,-7.611617E-05
244.4057,-7.60785E-05
244.5057,-7.604836E-05
244.6057,-7.603047E-05
244.7057,-7.604741E-05
244.8057,-7.599091E-05
244.9057,-7.597491E-05
245.0058,-7.59636E-05
245.1058,-7.592405E-05
245.2058,-7.591464E-05
245.3058,-7.590804E-05
245.4058,-7.587602E-05
245.5058,-7.582329E-05
245.6058,-7.582422E-05
245.7058,-7.581011E-05
245.8058,-7.580257E-05
245.9058,-7.57649E-05
246.0058,-7.572535E-05
246.1058,-7.570934E-05
246.2058,-7.570369E-05
246.3058,-7.569428E-05
246.4058,-7.564154E-05
246.5058,-7.561987E-05
246.6059,-7.563683E-05
246.7059,-7.561706E-05
246.8059,-7.558033E-05
246.9059,-7.558503E-05
247.0059,-7.556997E-05
247.1059,-7.55031E-05
247.2059,-7.551251E-05
247.3059,-7.546544E-05
247.4059,-7.540705E-05
247.5059,-7.538915E-05
247.6059,-7.538727E-05
247.7059,-7.535902E-05
247.8059,-7.535054E-05
247.9059,-7.531663E-05
248.0059,-7.527332E-05
248.1059,-7.527803E-05
248.2059,-7.524225E-05
248.306,-7.519893E-05
248.406,-7.520551E-05
248.506,-7.51848E-05
248.606,-7.515561E-05
248.706,-7.516314E-05
248.806,-7.509628E-05
248.906,-7.50765E-05
249.006,-7.508403E-05
249.106,-7.506237E-05
249.206,-7.502564E-05
249.306,-7.499457E-05
249.406,-7.496349E-05
249.506,-7.497385E-05
249.606,-7.495406E-05
249.706,-7.491734E-05
249.806,-7.487968E-05
249.9061,-7.487403E-05
250.0061,-7.484201E-05
250.1061,-7.481658E-05
250.2061,-7.480622E-05
250.3061,-7.47742E-05
250.4061,-7.474689E-05
250.5061,-7.474501E-05
250.6061,-7.469227E-05
250.7061,-7.466119E-05
250.8061,-7.465271E-05
250.9061,-7.462824E-05
251.0061,-7.459999E-05
251.1061,-7.458679E-05
251.2061,-7.455007E-05
251.3061,-7.453501E-05
251.4061,-7.453783E-05
251.5061,-7.451994E-05
251.6062,-7.446908E-05
251.7062,-7.444271E-05
251.8062,-7.441352E-05
251.9062,-7.441729E-05
252.0062,-7.439091E-05
252.1062,-7.435231E-05
252.2062,-7.430333E-05
252.3062,-7.431088E-05
252.4062,-7.427791E-05
252.5062,-7.428167E-05
252.6062,-7.424023E-05
252.7062,-7.42167E-05
252.8062,-7.41828E-05
252.9062,-7.419127E-05
253.0062,-7.414325E-05
253.1062,-7.411594E-05
253.2063,-7.411782E-05
253.3063,-7.408391E-05
253.4063,-7.406603E-05
253.5063,-7.406225E-05
253.6063,-7.402082E-05
253.7063,-7.398503E-05
253.8063,-7.398503E-05
253.9063,-7.393982E-05
254.0063,-7.392947E-05
254.1063,-7.393418E-05
254.2063,-7.388896E-05
254.3063,-7.385978E-05
254.4063,-7.387297E-05
254.5063,-7.384471E-05
254.6063,-7.382023E-05
254.7063,-7.380893E-05
254.8064,-7.376749E-05
254.9064,-7.375337E-05
255.0064,-7.373171E-05
255.1064,-7.368932E-05
255.2064,-7.367708E-05
255.3064,-7.366956E-05
255.4064,-7.366956E-05
255.5064,-7.362152E-05
255.6064,-7.360551E-05
255.7064,-7.357443E-05
255.8064,-7.357726E-05
255.9064,-7.356784E-05
256.0064,-7.355655E-05
256.1064,-7.351887E-05
256.2064,-7.349438E-05
256.3064,-7.348027E-05
256.4064,-7.345295E-05
256.5064,-7.343129E-05
256.6064,-7.338232E-05
256.7065,-7.336726E-05
256.8065,-7.337102E-05
256.9065,-7.332865E-05
257.0065,-7.332581E-05
257.1065,-7.33051E-05
257.2065,-7.328061E-05
257.3065,-7.326367E-05
257.4065,-7.32194E-05
257.5065,-7.320528E-05
257.6065,-7.320433E-05
257.7065,-7.315914E-05
257.8065,-7.31403E-05
257.9065,-7.312146E-05
258.0065,-7.310922E-05
258.1065,-7.308568E-05
258.2065,-7.30546E-05
258.3065,-7.302353E-05
258.4066,-7.303106E-05
258.5066,-7.300657E-05
258.6066,-7.296984E-05
258.7066,-7.295383E-05
258.8066,-7.292464E-05
258.9066,-7.291334E-05
259.0066,-7.291052E-05
259.1066,-7.289073E-05
259.2066,-7.2838E-05
259.3066,-7.28333E-05
259.4066,-7.281069E-05
259.5066,-7.279185E-05
259.6066,-7.277114E-05
259.7066,-7.273441E-05
259.8066,-7.270333E-05
259.9066,-7.272123E-05
260.0067,-7.268733E-05
260.1067,-7.263364E-05
260.2067,-7.263177E-05
260.3067,-7.26054E-05
260.4067,-7.257055E-05
260.5067,-7.260351E-05
260.6067,-7.255077E-05
260.7067,-7.251781E-05
260.8067,-7.251781E-05
260.9067,-7.249898E-05
261.0067,-7.248297E-05
261.1067,-7.24679E-05
261.2067,-7.243683E-05
261.3067,-7.238503E-05
261.4067,-7.241046E-05
261.5067,-7.238126E-05
261.6068,-7.233794E-05
261.7068,-7.233606E-05
261.8068,-7.229274E-05
261.9068,-7.226544E-05
262.0068,-7.227955E-05
262.1068,-7.224659E-05
262.2068,-7.221552E-05
262.3068,-7.21995E-05
262.4068,-7.216843E-05
262.5068,-7.216278E-05
262.6068,-7.215902E-05
262.7068,-7.211004E-05
262.8068,-7.208556E-05
262.9068,-7.206767E-05
263.0068,-7.206672E-05
263.1068,-7.204883E-05
263.2068,-7.204695E-05
263.3069,-7.200834E-05
263.4069,-7.199233E-05
263.5069,-7.198009E-05
263.6069,-7.19622E-05
263.7069,-7.194901E-05
263.8069,-7.194147E-05
263.9069,-7.189062E-05
264.0069,-7.187555E-05
264.1069,-7.188026E-05
264.2069,-7.186048E-05
264.3069,-7.183223E-05
264.4069,-7.1836E-05
264.5069,-7.179833E-05
264.6069,-7.178231E-05
264.7069,-7.176066E-05
264.8069,-7.174747E-05
264.907,-7.172959E-05
265.007,-7.172581E-05
265.107,-7.17051E-05
265.207,-7.16712E-05
265.307,-7.166178E-05
265.407,-7.161658E-05
265.507,-7.16081E-05
265.607,-7.159304E-05
265.707,-7.156291E-05
265.807,-7.153371E-05
265.907,-7.153371E-05
266.007,-7.150546E-05
266.107,-7.150263E-05
266.207,-7.147532E-05
266.307,-7.146684E-05
266.407,-7.14499E-05
266.507,-7.143576E-05
266.6071,-7.139528E-05
266.7071,-7.136419E-05
266.8071,-7.136702E-05
266.9071,-7.133689E-05
267.0071,-7.132182E-05
267.1071,-7.131146E-05
267.2071,-7.127284E-05
267.3071,-7.126437E-05
267.4071,-7.126625E-05
267.5071,-7.120692E-05
267.6071,-7.118056E-05
267.7071,-7.115983E-05
267.8071,-7.11636E-05
267.9071,-7.112782E-05
268.0071,-7.112217E-05
268.1071,-7.108167E-05
268.2072,-7.10666E-05
268.3072,-7.106472E-05
268.4072,-7.102988E-05
268.5072,-7.101857E-05
268.6072,-7.098185E-05
268.7072,-7.095454E-05
268.8072,-7.093664E-05
268.9072,-7.094324E-05
269.0072,-7.089521E-05
269.1072,-7.086225E-05
269.2072,-7.085943E-05
269.3072,-7.083777E-05
269.4072,-7.081799E-05
269.5072,-7.078503E-05
269.6072,-7.076337E-05
269.7072,-7.073606E-05
269.8073,-7.074171E-05
269.9073,-7.070875E-05
270.0073,-7.070498E-05
270.1073,-7.066542E-05
270.2073,-7.065601E-05
270.3073,-7.063153E-05
270.4073,-7.060799E-05
270.5073,-7.05835E-05
270.6073,-7.056278E-05
270.7073,-7.054865E-05
270.8073,-7.054018E-05
270.9073,-7.051287E-05
271.0073,-7.04978E-05
271.1073,-7.046484E-05
271.2073,-7.044412E-05
271.3073,-7.044036E-05
271.4073,-7.043565E-05
271.5074,-7.040834E-05
271.6074,-7.038761E-05
271.7074,-7.035936E-05
271.8074,-7.034524E-05
271.9074,-7.034335E-05
272.0074,-7.030098E-05
272.1074,-7.02859E-05
272.2074,-7.026802E-05
272.3074,-7.026896E-05
272.4074,-7.020868E-05
272.5074,-7.023694E-05
272.6074,-7.022469E-05
272.7074,-7.020398E-05
272.8074,-7.015972E-05
272.9074,-7.012582E-05
273.0074,-7.013429E-05
273.1075,-7.011546E-05
273.2075,-7.01098E-05
273.3075,-7.005048E-05
273.4075,-7.005989E-05
273.5075,-7.006554E-05
273.6075,-6.999209E-05
273.7075,-7.000622E-05
273.8075,-7.005424E-05
273.9075,-7.003635E-05
274.0075,-6.996949E-05
274.1075,-6.993747E-05
274.2075,-6.993936E-05
274.3075,-6.987438E-05
274.4075,-6.989038E-05
274.5075,-6.984047E-05
274.6075,-6.981316E-05
274.7076,-6.98254E-05
274.8076,-6.978868E-05
274.9076,-6.977926E-05
275.0076,-6.97689E-05
275.1076,-6.973123E-05
275.2076,-6.975194E-05
275.3076,-6.975948E-05
275.4076,-6.973028E-05
275.5076,-6.968885E-05
275.6076,-6.969638E-05
275.7076,-6.96719E-05
275.8076,-6.964836E-05
275.9076,-6.966719E-05
276.0076,-6.966248E-05
276.1076,-6.964552E-05
276.2076,-6.963988E-05
276.3076,-6.965778E-05
276.4077,-6.958997E-05
276.5077,-6.953064E-05
276.6077,-6.952216E-05
276.7077,-6.948544E-05
276.8077,-6.94327E-05
276.9077,-6.944306E-05
277.0077,-6.939315E-05
277.1077,-6.934889E-05
277.2077,-6.937243E-05
277.3077,-6.934889E-05
277.4077,-6.932722E-05
277.5077,-6.93423E-05
277.6077,-6.931121E-05
277.7077,-6.929145E-05
277.8077,-6.930556E-05
277.9077,-6.925849E-05
278.0078,-6.924813E-05
278.1078,-6.926413E-05
278.2078,-6.928486E-05
278.3078,-6.923683E-05
278.4078,-6.920292E-05
278.5078,-6.918503E-05
278.6078,-6.916148E-05
278.7078,-6.914924E-05
278.8078,-6.915395E-05
278.9078,-6.911439E-05
279.0078,-6.909933E-05
279.1078,-6.908709E-05
279.2078,-6.904282E-05
279.3078,-6.903624E-05
279.4078,-6.901081E-05
279.5078,-6.901645E-05
279.6078,-6.900421E-05
279.7079,-6.89835E-05
279.8079,-6.894112E-05
279.9079,-6.894771E-05
280.0079,-6.892605E-05
280.1079,-6.891193E-05
280.2079,-6.888932E-05
280.3079,-6.886954E-05
280.4079,-6.884601E-05
280.5079,-6.883658E-05
280.6079,-6.882999E-05
280.7079,-6.880833E-05
280.8079,-6.879232E-05
280.9079,-6.876596E-05
281.0079,-6.87377E-05
281.1079,-6.873864E-05
281.2079,-6.870569E-05
281.308,-6.870663E-05
281.408,-6.868497E-05
281.508,-6.864635E-05
281.608,-6.863129E-05
281.708,-6.862375E-05
281.808,-6.859644E-05
281.908,-6.858232E-05
282.008,-6.855124E-05
282.108,-6.854653E-05
282.208,-6.853335E-05
282.308,-6.851922E-05
282.408,-6.851074E-05
282.508,-6.847779E-05
282.608,-6.845613E-05
282.708,-6.843069E-05
282.808,-6.84241E-05
282.9081,-6.841469E-05
283.0081,-6.839209E-05
283.1081,-6.837325E-05
283.2081,-6.836667E-05
283.3081,-6.834124E-05
283.4081,-6.830074E-05
283.5081,-6.829132E-05
283.6081,-6.82706E-05
283.7081,-6.825271E-05
283.8081,-6.825366E-05
283.9081,-6.821976E-05
284.0081,-6.820186E-05
284.1081,-6.81981E-05
284.2081,-6.817831E-05
284.3081,-6.814441E-05
284.4081,-6.812275E-05
284.5081,-6.810957E-05
284.6082,-6.810297E-05
284.7082,-6.809168E-05
284.8082,-6.808602E-05
284.9082,-6.80427E-05
285.0082,-6.800974E-05
285.1082,-6.801445E-05
285.2082,-6.798997E-05
285.3082,-6.79749E-05
285.4082,-6.79523E-05
285.5082,-6.791181E-05
285.6082,-6.789391E-05
285.7082,-6.791275E-05
285.8082,-6.787602E-05
285.9082,-6.783741E-05
286.0082,-6.782799E-05
286.1082,-6.782423E-05
286.2083,-6.780068E-05
286.3083,-6.777902E-05
286.4083,-6.772911E-05
286.5083,-6.771686E-05
286.6083,-6.774795E-05
286.7083,-6.768391E-05
286.8083,-6.76726E-05
286.9083,-6.769332E-05
287.0083,-6.765E-05
287.1083,-6.762175E-05
287.2083,-6.7634E-05
287.3083,-6.759444E-05
287.4083,-6.755206E-05
287.5083,-6.756053E-05
287.6083,-6.752663E-05
287.7083,-6.751062E-05
287.8083,-6.749933E-05
287.9084,-6.748897E-05
288.0084,-6.742775E-05
288.1084,-6.744471E-05
288.2084,-6.741363E-05
288.3084,-6.739009E-05
288.4084,-6.739009E-05
288.5084,-6.735807E-05
288.6084,-6.733075E-05
288.7084,-6.735713E-05
288.8084,-6.73204E-05
288.9084,-6.730062E-05
289.0084,-6.729121E-05
289.1084,-6.726578E-05
289.2084,-6.725165E-05
289.3084,-6.724882E-05
289.4084,-6.72121E-05
289.5085,-6.716501E-05
289.6085,-6.719986E-05
289.7085,-6.716972E-05
289.8085,-6.712923E-05
289.9085,-6.713959E-05
290.0085,-6.710004E-05
290.1085,-6.708496E-05
290.2085,-6.707838E-05
290.3085,-6.706236E-05
290.4085,-6.703694E-05
290.5085,-6.702752E-05
290.6085,-6.699174E-05
290.7085,-6.697855E-05
290.8085,-6.69955E-05
290.9085,-6.696254E-05
291.0085,-6.693617E-05
291.1086,-6.694465E-05
291.2086,-6.693052E-05
291.3086,-6.690132E-05
291.4086,-6.689945E-05
291.5086,-6.688155E-05
291.6086,-6.687214E-05
291.7086,-6.683729E-05
291.8086,-6.682505E-05
291.9086,-6.68241E-05
292.0086,-6.679868E-05
292.1086,-6.678078E-05
292.2086,-6.676572E-05
292.3086,-6.674123E-05
292.4086,-6.673935E-05
292.5086,-6.672711E-05
292.6086,-6.669132E-05
292.7086,-6.669697E-05
292.8087,-6.66593E-05
292.9087,-6.663952E-05
293.0087,-6.662634E-05
293.1087,-6.663199E-05
293.2087,-6.66207E-05
293.3087,-6.660751E-05
293.4087,-6.658585E-05
293.5087,-6.656325E-05
293.6087,-6.654159E-05
293.7087,-6.654065E-05
293.8087,-6.652934E-05
293.9087,-6.650109E-05
294.0087,-6.647755E-05
294.1087,-6.645777E-05
294.2087,-6.647189E-05
294.3087,-6.644364E-05
294.4088,-6.643235E-05
294.5088,-6.640975E-05
294.6088,-6.638337E-05
294.7088,-6.639373E-05
294.8088,-6.637396E-05
294.9088,-6.633535E-05
295.0088,-6.632687E-05
295.1088,-6.633535E-05
295.2088,-6.630144E-05
295.3088,-6.628921E-05
295.4088,-6.624965E-05
295.5088,-6.626095E-05
295.6088,-6.62487E-05
295.7088,-6.623552E-05
295.8088,-6.621386E-05
295.9088,-6.617149E-05
296.0089,-6.616678E-05
296.1089,-6.618749E-05
296.2089,-6.614324E-05
296.3089,-6.612063E-05
296.4089,-6.611687E-05
296.5089,-6.608767E-05
296.6089,-6.609803E-05
296.7089,-6.610085E-05
296.8089,-6.605376E-05
296.9089,-6.602269E-05
297.0089,-6.603211E-05
297.1089,-6.600386E-05
297.2089,-6.599915E-05
297.3089,-6.595583E-05
297.4089,-6.594735E-05
297.5089,-6.59483E-05
297.6089,-6.596242E-05
297.709,-6.593888E-05
297.809,-6.592005E-05
297.909,-6.593134E-05
298.009,-6.590308E-05
298.109,-6.585977E-05
298.209,-6.585412E-05
298.309,-6.584094E-05
298.409,-6.58287E-05
298.509,-6.582681E-05
298.609,-6.577784E-05
298.709,-6.577219E-05
298.809,-6.581269E-05
298.909,-6.57882E-05
299.009,-6.572605E-05
299.109,-6.569779E-05
299.209,-6.568555E-05
299.3091,-6.566202E-05
299.4091,-6.563282E-05
299.5091,-6.563093E-05
299.6091,-6.561775E-05
299.7091,-6.559514E-05
299.8091,-6.558855E-05
299.9091,-6.55716E-05
300.0091,-6.556312E-05
300.1091,-6.556878E-05
300.2091,-6.55556E-05
300.3091,-6.553675E-05
300.4091,-6.553111E-05
300.5091,-6.55198E-05
300.6091,-6.547555E-05
300.7091,-6.548403E-05
300.8091,-6.549439E-05
300.9091,-6.545859E-05
301.0092,-6.544353E-05
301.1092,-6.541528E-05
301.2092,-6.540208E-05
301.3092,-6.541058E-05
301.4092,-6.535877E-05
301.5092,-6.534465E-05
301.6092,-6.534936E-05
301.7092,-6.537572E-05
301.8092,-6.533429E-05
301.9092,-6.53098E-05
302.0092,-6.530416E-05
302.1092,-6.52759E-05
302.2092,-6.526931E-05
302.3092,-6.525235E-05
302.4092,-6.519397E-05
302.5092,-6.520433E-05
302.6093,-6.518644E-05
302.7093,-6.517984E-05
302.8093,-6.516572E-05
302.9093,-6.511487E-05
303.0093,-6.508661E-05
303.1093,-6.507719E-05
303.2093,-6.506118E-05
303.3093,-6.505741E-05
303.4093,-6.505271E-05
303.5093,-6.501692E-05
303.6093,-6.497172E-05
303.7093,-6.500562E-05
303.8093,-6.499809E-05
303.9093,-6.494064E-05
304.0093,-6.494347E-05
304.1093,-6.492557E-05
304.2094,-6.491334E-05
304.3094,-6.490957E-05
304.4094,-6.488508E-05
304.5094,-6.484742E-05
304.6094,-6.483893E-05
304.7094,-6.483988E-05
304.8094,-6.480786E-05
304.9094,-6.479844E-05
305.0094,-6.476454E-05
305.1094,-6.473817E-05
305.2094,-6.474382E-05
305.3094,-6.472028E-05
305.4094,-6.470333E-05
305.5094,-6.467885E-05
305.6094,-6.46553E-05
305.7094,-6.464683E-05
305.8094,-6.465624E-05
305.9095,-6.46327E-05
306.0095,-6.45922E-05
306.1095,-6.457714E-05
306.2095,-6.460162E-05
306.3095,-6.455265E-05
306.4095,-6.457619E-05
306.5095,-6.45244E-05
306.6095,-6.449802E-05
306.7095,-6.450273E-05
306.8095,-6.449426E-05
306.9095,-6.447636E-05
307.0095,-6.447636E-05
307.1095,-6.444059E-05
307.2095,-6.445471E-05
307.3095,-6.445282E-05
307.4095,-6.444811E-05
307.5096,-6.442174E-05
307.6096,-6.438502E-05
307.7096,-6.439255E-05
307.8096,-6.436148E-05
307.9096,-6.432099E-05
308.0096,-6.433134E-05
308.1096,-6.428991E-05
308.2096,-6.428803E-05
308.3096,-6.427578E-05
308.4096,-6.422964E-05
308.5096,-6.423623E-05
308.6096,-6.421174E-05
308.7096,-6.420704E-05
308.8096,-6.420139E-05
308.9096,-6.417878E-05
309.0096,-6.416089E-05
309.1096,-6.41543E-05
309.2097,-6.414017E-05
309.3097,-6.411474E-05
309.4097,-6.409214E-05
309.5097,-6.409497E-05
309.6097,-6.41072E-05
309.7097,-6.407048E-05
309.8097,-6.406577E-05
309.9097,-6.404694E-05
310.0097,-6.406577E-05
310.1097,-6.404977E-05
310.2097,-6.398479E-05
310.3097,-6.399232E-05
310.4097,-6.398291E-05
310.5097,-6.396406E-05
310.6097,-6.394335E-05
310.7097,-6.393487E-05
310.8098,-6.390191E-05
310.9098,-6.389815E-05
311.0098,-6.388308E-05
311.1098,-6.384165E-05
311.2098,-6.384729E-05
311.3098,-6.38407E-05
311.4098,-6.380962E-05
311.5098,-6.379832E-05
311.6098,-6.380114E-05
311.7098,-6.375971E-05
311.8098,-6.374841E-05
311.9098,-6.375313E-05
312.0098,-6.373334E-05
312.1098,-6.375218E-05
312.2098,-6.372393E-05
312.3098,-6.371168E-05
312.4099,-6.369756E-05
312.5099,-6.369851E-05
312.6099,-6.367307E-05
312.7099,-6.362505E-05
312.8099,-6.366837E-05
312.9099,-6.361846E-05
313.0099,-6.35902E-05
313.1099,-6.359868E-05
313.2099,-6.357984E-05
313.3099,-6.355158E-05
313.4099,-6.355536E-05
313.5099,-6.353558E-05
313.6099,-6.349697E-05
313.7099,-6.348284E-05
313.8099,-6.349038E-05
313.9099,-6.346401E-05
314.0099,-6.34593E-05
314.11,-6.343481E-05
314.21,-6.34367E-05
314.31,-6.341127E-05
314.41,-6.340185E-05
314.51,-6.338019E-05
314.61,-6.339526E-05
314.71,-6.335571E-05
314.81,-6.334724E-05
314.91,-6.336324E-05
315.01,-6.331521E-05
315.11,-6.33218E-05
315.21,-6.330203E-05
315.31,-6.32992E-05
315.41,-6.327755E-05
315.51,-6.326436E-05
315.61,-6.324742E-05
315.7101,-6.32314E-05
315.8101,-6.320974E-05
315.9101,-6.320127E-05
316.0101,-6.317866E-05
316.1101,-6.315982E-05
316.2101,-6.31749E-05
316.3101,-6.314571E-05
316.4101,-6.311839E-05
316.5101,-6.31118E-05
316.6101,-6.312122E-05
316.7101,-6.310144E-05
316.8101,-6.30892E-05
316.9101,-6.304965E-05
317.0101,-6.30487E-05
317.1101,-6.304965E-05
317.2101,-6.303646E-05
317.3102,-6.301763E-05
317.4102,-6.298184E-05
317.5102,-6.297619E-05
317.6102,-6.295923E-05
317.7102,-6.296018E-05
317.8102,-6.29131E-05
317.9102,-6.289615E-05
318.0102,-6.288013E-05
318.1102,-6.28952E-05
318.2102,-6.287542E-05
318.3102,-6.284246E-05
318.4102,-6.280856E-05
318.5102,-6.279255E-05
318.6102,-6.280103E-05
318.7102,-6.277937E-05
318.8102,-6.276713E-05
318.9102,-6.274076E-05
319.0103,-6.27078E-05
319.1103,-6.270121E-05
319.2103,-6.272851E-05
319.3103,-6.26786E-05
319.4103,-6.265883E-05
319.5103,-6.265035E-05
319.6103,-6.263905E-05
319.7103,-6.261645E-05
319.8103,-6.261456E-05
319.9103,-6.259385E-05
320.0103,-6.256842E-05
320.1103,-6.2559E-05
320.2103,-6.251474E-05
320.3103,-6.250344E-05
320.4103,-6.251098E-05
320.5103,-6.248366E-05
320.6104,-6.246201E-05
320.7104,-6.246012E-05
320.8104,-6.2446E-05
320.9104,-6.244788E-05
321.0104,-6.242246E-05
321.1104,-6.239326E-05
321.2104,-6.235654E-05
321.3104,-6.235936E-05
321.4104,-6.236971E-05
321.5104,-6.236312E-05
321.6104,-6.232828E-05
321.7104,-6.230097E-05
321.8104,-6.229626E-05
321.9104,-6.230003E-05
322.0104,-6.227648E-05
322.1104,-6.226989E-05
322.2104,-6.223882E-05
322.3105,-6.221998E-05
322.4105,-6.224823E-05
322.5105,-6.222469E-05
322.6105,-6.219267E-05
322.7105,-6.218137E-05
322.8105,-6.216818E-05
322.9105,-6.215783E-05
323.0105,-6.21437E-05
323.1105,-6.213805E-05
323.2105,-6.210415E-05
323.3105,-6.210039E-05
323.4105,-6.211262E-05
323.5105,-6.209567E-05
323.6105,-6.207213E-05
323.7105,-6.206083E-05
323.8105,-6.202127E-05
323.9106,-6.202693E-05
324.0106,-6.201751E-05
324.1106,-6.200715E-05
324.2106,-6.197984E-05
324.3106,-6.199208E-05
324.4106,-6.197795E-05
324.5106,-6.19384E-05
324.6106,-6.196383E-05
324.7106,-6.194499E-05
324.8106,-6.192522E-05
324.9106,-6.191674E-05
325.0106,-6.188661E-05
325.1106,-6.186965E-05
325.2106,-6.189226E-05
325.3106,-6.185177E-05
325.4106,-6.184423E-05
325.5107,-6.180468E-05
325.6107,-6.177078E-05
325.7107,-6.180845E-05
325.8107,-6.179808E-05
325.9107,-6.176419E-05
326.0107,-6.174347E-05
326.1107,-6.172839E-05
326.2107,-6.171427E-05
326.3107,-6.171144E-05
326.4107,-6.167754E-05
326.5107,-6.168884E-05
326.6107,-6.166059E-05
326.7107,-6.167284E-05
326.8107,-6.163705E-05
326.9107,-6.160032E-05
327.0107,-6.161068E-05
327.1107,-6.159562E-05
327.2108,-6.157301E-05
327.3108,-6.158431E-05
327.4108,-6.156171E-05
327.5108,-6.153629E-05
327.6108,-6.155135E-05
327.7108,-6.151745E-05
327.8108,-6.150709E-05
327.9108,-6.149579E-05
328.0108,-6.14892E-05
328.1108,-6.146754E-05
328.2108,-6.146095E-05
328.3108,-6.144494E-05
328.4108,-6.142987E-05
328.5108,-6.145247E-05
328.6108,-6.144776E-05
328.7108,-6.140632E-05
328.8109,-6.138466E-05
328.9109,-6.13583E-05
329.0109,-6.136206E-05
329.1109,-6.138278E-05
329.2109,-6.136395E-05
329.3109,-6.132816E-05
329.4109,-6.130839E-05
329.5109,-6.130933E-05
329.6109,-6.129897E-05
329.7109,-6.131027E-05
329.8109,-6.126318E-05
329.9109,-6.125376E-05
330.0109,-6.124811E-05
330.1109,-6.125189E-05
330.2109,-6.121986E-05
330.3109,-6.119726E-05
330.4109,-6.118031E-05
330.511,-6.116807E-05
330.611,-6.117466E-05
330.711,-6.115583E-05
330.811,-6.112098E-05
330.911,-6.113416E-05
331.011,-6.1153E-05
331.111,-6.113228E-05
331.211,-6.110215E-05
331.311,-6.109367E-05
331.411,-6.108331E-05
331.511,-6.107955E-05
331.611,-6.105789E-05
331.711,-6.103999E-05
331.811,-6.102775E-05
331.911,-6.10042E-05
332.011,-6.10042E-05
332.1111,-6.097313E-05
332.2111,-6.094958E-05
332.3111,-6.097219E-05
332.4111,-6.0959E-05
332.5111,-6.093169E-05
332.6111,-6.092604E-05
332.7111,-6.09185E-05
332.8111,-6.090344E-05
332.9111,-6.088555E-05
333.0111,-6.087707E-05
333.1111,-6.088084E-05
333.2111,-6.085353E-05
333.3111,-6.084411E-05
333.4111,-6.083093E-05
333.5111,-6.079608E-05
333.6111,-6.081492E-05
333.7112,-6.081021E-05
333.8112,-6.074523E-05
333.9112,-6.071509E-05
334.0112,-6.076406E-05
334.1112,-6.071792E-05
334.2112,-6.072828E-05
334.3112,-6.070568E-05
334.4112,-6.068213E-05
334.5112,-6.068213E-05
334.6112,-6.068496E-05
334.7112,-6.064258E-05
334.8112,-6.062752E-05
334.9112,-6.066047E-05
335.0112,-6.061904E-05
335.1112,-6.059832E-05
335.2112,-6.062374E-05
335.3112,-6.063034E-05
335.4113,-6.058514E-05
335.5113,-6.056536E-05
335.6113,-6.055123E-05
335.7113,-6.052863E-05
335.8113,-6.055123E-05
335.9113,-6.04919E-05
336.0113,-6.047024E-05
336.1113,-6.04806E-05
336.2113,-6.044293E-05
336.3113,-6.04354E-05
336.4113,-6.045894E-05
336.5113,-6.041751E-05
336.6113,-6.040338E-05
336.7113,-6.041185E-05
336.8113,-6.038172E-05
336.9113,-6.036854E-05
337.0114,-6.036383E-05
337.1114,-6.035724E-05
337.2114,-6.033087E-05
337.3114,-6.034217E-05
337.4114,-6.031203E-05
337.5114,-6.028284E-05
337.6114,-6.032051E-05
337.7114,-6.028566E-05
337.8114,-6.025741E-05
337.9114,-6.026401E-05
338.0114,-6.022916E-05
338.1114,-6.021692E-05
338.2114,-6.02414E-05
338.3114,-6.020373E-05
338.4114,-6.016983E-05
338.5114,-6.01962E-05
338.6115,-6.015006E-05
338.7115,-6.014346E-05
338.8115,-6.014158E-05
338.9115,-6.010014E-05
339.0115,-6.009167E-05
339.1115,-6.009826E-05
339.2115,-6.008225E-05
339.3115,-6.006624E-05
339.4115,-6.004646E-05
339.5115,-6.002198E-05
339.6115,-6.001256E-05
339.7115,-6.000408E-05
339.8115,-5.99909E-05
339.9115,-5.998431E-05
340.0115,-5.995982E-05
340.1115,-5.993911E-05
340.2115,-5.992875E-05
340.3116,-5.994852E-05
340.4116,-5.990426E-05
340.5116,-5.988825E-05
340.6116,-5.989485E-05
340.7116,-5.987413E-05
340.8116,-5.985153E-05
340.9116,-5.986283E-05
341.0116,-5.98374E-05
341.1116,-5.980444E-05
341.2116,-5.982798E-05
341.3116,-5.979879E-05
341.4116,-5.977524E-05
341.5116,-5.976206E-05
341.6116,-5.978749E-05
341.7116,-5.971968E-05
341.8116,-5.976206E-05
341.9117,-5.976771E-05
342.0117,-5.977807E-05
342.1117,-5.970932E-05
342.2117,-5.969237E-05
342.3117,-5.969049E-05
342.4117,-5.969802E-05
342.5117,-5.969143E-05
342.6117,-5.966318E-05
342.7117,-5.969426E-05
342.8117,-5.972722E-05
342.9117,-5.96547E-05
343.0117,-5.966036E-05
343.1117,-5.969802E-05
343.2117,-5.967071E-05
343.3117,-5.962363E-05
343.4117,-5.959726E-05
343.5117,-5.954546E-05
343.6118,-5.953511E-05
343.7118,-5.95643E-05
343.8118,-5.953322E-05
343.9118,-5.95012E-05
344.0118,-5.951816E-05
344.1118,-5.948896E-05
344.2118,-5.949273E-05
344.3118,-5.948143E-05
344.4118,-5.944941E-05
344.5118,-5.947766E-05
344.6118,-5.947295E-05
344.7118,-5.942304E-05
344.8118,-5.940609E-05
344.9118,-5.944187E-05
345.0118,-5.941456E-05
345.1118,-5.940609E-05
345.2119,-5.940609E-05
345.3119,-5.938537E-05
345.4119,-5.9359E-05
345.5119,-5.93995E-05
345.6119,-5.935994E-05
345.7119,-5.93364E-05
345.8119,-5.938348E-05
345.9119,-5.93816E-05
346.0119,-5.933828E-05
346.1119,-5.932793E-05
346.2119,-5.929308E-05
346.3119,-5.929025E-05
346.4119,-5.933263E-05
346.5119,-5.927707E-05
346.6119,-5.925164E-05
346.7119,-5.926389E-05
346.812,-5.924411E-05
346.912,-5.925636E-05
347.012,-5.923281E-05
347.112,-5.921209E-05
347.212,-5.92055E-05
347.312,-5.920079E-05
347.412,-5.917819E-05
347.512,-5.916877E-05
347.612,-5.916783E-05
347.712,-5.916218E-05
347.812,-5.915747E-05
347.912,-5.914711E-05
348.012,-5.91311E-05
348.112,-5.911227E-05
348.212,-5.908778E-05
348.312,-5.908966E-05
348.412,-5.907648E-05
348.5121,-5.904635E-05
348.6121,-5.907083E-05
348.7121,-5.9052E-05
348.8121,-5.902845E-05
348.9121,-5.901998E-05
349.0121,-5.89889E-05
349.1121,-5.899737E-05
349.2121,-5.899643E-05
349.3121,-5.898702E-05
349.4121,-5.892957E-05
349.5121,-5.893993E-05
349.6121,-5.891921E-05
349.7121,-5.890508E-05
349.8121,-5.889849E-05
349.9121,-5.888437E-05
350.0121,-5.887401E-05
350.1122,-5.887778E-05
350.2122,-5.886271E-05
350.3122,-5.885612E-05
350.4122,-5.883822E-05
350.5122,-5.882975E-05
350.6122,-5.881939E-05
350.7122,-5.882033E-05
350.8122,-5.879114E-05
350.9122,-5.877983E-05
351.0122,-5.879302E-05
351.1122,-5.877607E-05
351.2122,-5.876853E-05
351.3122,-5.8761E-05
351.4122,-5.872992E-05
351.5122,-5.872427E-05
351.6122,-5.872239E-05
351.7122,-5.871486E-05
351.8123,-5.869037E-05
351.9123,-5.870356E-05
352.0123,-5.86866E-05
352.1123,-5.868566E-05
352.2123,-5.866306E-05
352.3123,-5.865553E-05
352.4123,-5.862822E-05
352.5123,-5.864705E-05
352.6123,-5.861503E-05
352.7123,-5.860279E-05
352.8123,-5.861975E-05
352.9123,-5.858961E-05
353.0123,-5.857359E-05
353.1123,-5.855571E-05
353.2123,-5.85397E-05
353.3123,-5.85331E-05
353.4124,-5.85331E-05
353.5124,-5.849449E-05
353.6124,-5.847754E-05
353.7124,-5.848319E-05
353.8124,-5.846718E-05
353.9124,-5.844929E-05
354.0124,-5.843328E-05
354.1124,-5.842857E-05
354.2124,-5.841821E-05
354.3124,-5.843139E-05
354.4124,-5.841539E-05
354.5124,-5.838337E-05
354.6124,-5.836736E-05
354.7124,-5.838337E-05
354.8124,-5.837207E-05
354.9124,-5.837583E-05
355.0125,-5.834382E-05
355.1125,-5.831839E-05
355.2125,-5.831651E-05
355.3125,-5.832309E-05
355.4125,-5.830426E-05
355.5125,-5.830614E-05
355.6125,-5.829296E-05
355.7125,-5.825718E-05
355.8125,-5.825058E-05
355.9125,-5.82553E-05
356.0125,-5.823457E-05
356.1125,-5.822139E-05
356.2125,-5.822892E-05
356.3125,-5.821009E-05
356.4125,-5.81969E-05
356.5125,-5.820444E-05
356.6125,-5.81696E-05
356.7126,-5.81743E-05
356.8126,-5.816112E-05
356.9126,-5.814417E-05
357.0126,-5.812533E-05
357.1126,-5.812721E-05
357.2126,-5.809802E-05
357.3126,-5.809708E-05
357.4126,-5.810556E-05
357.5126,-5.807636E-05
357.6126,-5.807919E-05
357.7126,-5.808201E-05
357.8126,-5.805282E-05
357.9126,-5.804246E-05
358.0126,-5.805376E-05
358.1126,-5.802928E-05
358.2126,-5.800573E-05
358.3127,-5.802457E-05
358.4127,-5.798125E-05
358.5127,-5.797654E-05
358.6127,-5.798784E-05
358.7127,-5.799255E-05
358.8127,-5.795205E-05
358.9127,-5.796242E-05
359.0127,-5.794358E-05
359.1127,-5.792286E-05
359.2127,-5.796053E-05
359.3127,-5.795111E-05
359.4127,-5.791344E-05
359.5127,-5.792286E-05
359.6127,-5.79464E-05
359.7127,-5.790026E-05
359.8127,-5.789743E-05
359.9128,-5.789084E-05
360.0128,-5.787106E-05
360.1128,-5.78673E-05
360.2128,-5.785129E-05
360.3128,-5.783622E-05
360.4128,-5.784093E-05
360.5128,-5.785411E-05
360.6128,-5.780515E-05
360.7128,-5.779384E-05
360.8128,-5.778066E-05
360.9128,-5.776277E-05
361.0128,-5.777218E-05
361.1128,-5.778349E-05
361.2128,-5.772133E-05
361.3128,-5.772416E-05
361.4128,-5.773263E-05
361.5128,-5.770815E-05
361.6129,-5.769967E-05
361.7129,-5.770532E-05
361.8129,-5.767801E-05
361.9129,-5.765917E-05
362.0129,-5.768272E-05
362.1129,-5.767048E-05
362.2129,-5.765541E-05
362.3129,-5.764882E-05
362.4129,-5.763846E-05
362.5129,-5.763846E-05
362.6129,-5.764882E-05
362.7129,-5.762716E-05
362.8129,-5.760833E-05
362.9129,-5.761398E-05
363.0129,-5.759702E-05
363.1129,-5.757913E-05
363.213,-5.759608E-05
363.313,-5.756218E-05
363.413,-5.754334E-05
363.513,-5.754617E-05
363.613,-5.756218E-05
363.713,-5.750944E-05
363.813,-5.750662E-05
363.913,-5.749814E-05
364.013,-5.74633E-05
364.113,-5.748496E-05
364.213,-5.747554E-05
364.313,-5.744258E-05
364.413,-5.743598E-05
364.513,-5.742845E-05
364.613,-5.741338E-05
364.713,-5.740962E-05
364.813,-5.739267E-05
364.9131,-5.737195E-05
365.0131,-5.738136E-05
365.1131,-5.734841E-05
365.2131,-5.736724E-05
365.3131,-5.732486E-05
365.4131,-5.73258E-05
365.5131,-5.729661E-05
365.6131,-5.728813E-05
365.7131,-5.729378E-05
365.8131,-5.727495E-05
365.9131,-5.727307E-05
366.0131,-5.725141E-05
366.1131,-5.723822E-05
366.2131,-5.722221E-05
366.3131,-5.723728E-05
366.4131,-5.720338E-05
366.5132,-5.719114E-05
366.6132,-5.718737E-05
366.7132,-5.716948E-05
366.8132,-5.716948E-05
366.9132,-5.714687E-05
367.0132,-5.713369E-05
367.1132,-5.711768E-05
367.2132,-5.711203E-05
367.3132,-5.709602E-05
367.4132,-5.709414E-05
367.5132,-5.709696E-05
367.6132,-5.706212E-05
367.7132,-5.705364E-05
367.8132,-5.705082E-05
367.9132,-5.704046E-05
368.0132,-5.702068E-05
368.1133,-5.704517E-05
368.2133,-5.701126E-05
368.3133,-5.697265E-05
368.4133,-5.701597E-05
368.5133,-5.697171E-05
368.6133,-5.695006E-05
368.7133,-5.696324E-05
368.8133,-5.69783E-05
368.9133,-5.693593E-05
369.0133,-5.693028E-05
369.1133,-5.690108E-05
369.2133,-5.689449E-05
369.3133,-5.689637E-05
369.4133,-5.689072E-05
369.5133,-5.686153E-05
369.6133,-5.685117E-05
369.7133,-5.684269E-05
369.8134,-5.681727E-05
369.9134,-5.682951E-05
370.0134,-5.679373E-05
370.1134,-5.679467E-05
370.2134,-5.68248E-05
370.3134,-5.683139E-05
370.4134,-5.67796E-05
370.5134,-5.675888E-05
370.6134,-5.675606E-05
370.7134,-5.674758E-05
370.8134,-5.6757E-05
370.9134,-5.672687E-05
371.0134,-5.671368E-05
371.1134,-5.670426E-05
371.2134,-5.671462E-05
371.3134,-5.669767E-05
371.4135,-5.667224E-05
371.5135,-5.666376E-05
371.6135,-5.664587E-05
371.7135,-5.666283E-05
371.8135,-5.664117E-05
371.9135,-5.661292E-05
372.0135,-5.660444E-05
372.1135,-5.659973E-05
372.2135,-5.658937E-05
372.3135,-5.656677E-05
372.4135,-5.656112E-05
372.5135,-5.65404E-05
372.6135,-5.655547E-05
372.7135,-5.655076E-05
372.8135,-5.652345E-05
372.9135,-5.652156E-05
373.0135,-5.652062E-05
373.1136,-5.651497E-05
373.2136,-5.647448E-05
373.3136,-5.646977E-05
373.4136,-5.642739E-05
373.5136,-5.643775E-05
373.6136,-5.64547E-05
373.7136,-5.64208E-05
373.8136,-5.640479E-05
373.9136,-5.640008E-05
374.0136,-5.639349E-05
374.1136,-5.637089E-05
374.2136,-5.636712E-05
374.3136,-5.63464E-05
374.4136,-5.631344E-05
374.5136,-5.632945E-05
374.6136,-5.630214E-05
374.7137,-5.629461E-05
374.8137,-5.628896E-05
374.9137,-5.625882E-05
375.0137,-5.626353E-05
375.1137,-5.626636E-05
375.2137,-5.623434E-05
375.3137,-5.622775E-05
375.4137,-5.621079E-05
375.5137,-5.619761E-05
375.6137,-5.619384E-05
375.7137,-5.622021E-05
375.8137,-5.617784E-05
375.9137,-5.616559E-05
376.0137,-5.61703E-05
376.1137,-5.613357E-05
376.2137,-5.614205E-05
376.3138,-5.612698E-05
376.4138,-5.610626E-05
376.5138,-5.608743E-05
376.6138,-5.609779E-05
376.7138,-5.608837E-05
376.8138,-5.606577E-05
376.9138,-5.605729E-05
377.0138,-5.603846E-05
377.1138,-5.603752E-05
377.2138,-5.6062E-05
377.3138,-5.601397E-05
377.4138,-5.599043E-05
377.5138,-5.600079E-05
377.6138,-5.599984E-05
377.7138,-5.598666E-05
377.8138,-5.598948E-05
377.9138,-5.597536E-05
378.0139,-5.593487E-05
378.1139,-5.594334E-05
378.2139,-5.594428E-05
378.3139,-5.592074E-05
378.4139,-5.59198E-05
378.5139,-5.590002E-05
378.6139,-5.587459E-05
378.7139,-5.588684E-05
378.8139,-5.58793E-05
378.9139,-5.585293E-05
379.0139,-5.585764E-05
379.1139,-5.582657E-05
379.2139,-5.581809E-05
379.3139,-5.582939E-05
379.4139,-5.581433E-05
379.5139,-5.577477E-05
379.614,-5.578702E-05
379.714,-5.577383E-05
379.814,-5.575405E-05
379.914,-5.577665E-05
380.014,-5.574276E-05
380.114,-5.570885E-05
380.214,-5.572674E-05
380.314,-5.571921E-05
380.414,-5.570979E-05
380.514,-5.570132E-05
380.614,-5.568342E-05
380.714,-5.565046E-05
380.814,-5.568342E-05
380.914,-5.566459E-05
381.014,-5.563916E-05
381.114,-5.562786E-05
381.2141,-5.561468E-05
381.3141,-5.560149E-05
381.4141,-5.55949E-05
381.5141,-5.559961E-05
381.6141,-5.557795E-05
381.7141,-5.558925E-05
381.8141,-5.556194E-05
381.9141,-5.556571E-05
382.0141,-5.555346E-05
382.1141,-5.553934E-05
382.2141,-5.551862E-05
382.3141,-5.54979E-05
382.4141,-5.54979E-05
382.5141,-5.548095E-05
382.6141,-5.548283E-05
382.7141,-5.545741E-05
382.8141,-5.54414E-05
382.9142,-5.544705E-05
383.0142,-5.54414E-05
383.1142,-5.542727E-05
383.2142,-5.541032E-05
383.3142,-5.540279E-05
383.4142,-5.539525E-05
383.5142,-5.539808E-05
383.6142,-5.538113E-05
383.7142,-5.536606E-05
383.8142,-5.535476E-05
383.9142,-5.534252E-05
384.0142,-5.53444E-05
384.1142,-5.534346E-05
384.2142,-5.53444E-05
384.3142,-5.530768E-05
384.4142,-5.528036E-05
384.5143,-5.53218E-05
384.6143,-5.531992E-05
384.7143,-5.528507E-05
384.8143,-5.526435E-05
384.9143,-5.527848E-05
385.0143,-5.527754E-05
385.1143,-5.528413E-05
385.2143,-5.523987E-05
385.3143,-5.523799E-05
385.4143,-5.524552E-05
385.5143,-5.519655E-05
385.6143,-5.516641E-05
385.7143,-5.517018E-05
385.8143,-5.517395E-05
385.9143,-5.516359E-05
386.0143,-5.515323E-05
386.1143,-5.513157E-05
386.2144,-5.512874E-05
386.3144,-5.516735E-05
386.4144,-5.515417E-05
386.5144,-5.509955E-05
386.6144,-5.509578E-05
386.7144,-5.511368E-05
386.8144,-5.509861E-05
386.9144,-5.508542E-05
387.0144,-5.507224E-05
387.1144,-5.502233E-05
387.2144,-5.503645E-05
387.3144,-5.503551E-05
387.4144,-5.501291E-05
387.5144,-5.501856E-05
387.6144,-5.500632E-05
387.7144,-5.499031E-05
387.8145,-5.497901E-05
387.9145,-5.49856E-05
388.0145,-5.494699E-05
388.1145,-5.495829E-05
388.2145,-5.493663E-05
388.3145,-5.492156E-05
388.4145,-5.491591E-05
388.5145,-5.491403E-05
388.6145,-5.488954E-05
388.7145,-5.489708E-05
388.8145,-5.488766E-05
388.9145,-5.484999E-05
389.0145,-5.485282E-05
389.1145,-5.484717E-05
389.2145,-5.483775E-05
389.3145,-5.483116E-05
389.4146,-5.481515E-05
389.5146,-5.480008E-05
389.6146,-5.480761E-05
389.7146,-5.480856E-05
389.8146,-5.478784E-05
389.9146,-5.478313E-05
390.0146,-5.478124E-05
390.1146,-5.475676E-05
390.2146,-5.475865E-05
390.3146,-5.477465E-05
390.4146,-5.473416E-05
390.5146,-5.474735E-05
390.6146,-5.473133E-05
390.7146,-5.472286E-05
390.8146,-5.470591E-05
390.9146,-5.471156E-05
391.0146,-5.469837E-05
391.1147,-5.467012E-05
391.2147,-5.468425E-05
391.3147,-5.466635E-05
391.4147,-5.464469E-05
391.5147,-5.466353E-05
391.6147,-5.462115E-05
391.7147,-5.461268E-05
391.8147,-5.463999E-05
391.9147,-5.461927E-05
392.0147,-5.459196E-05
392.1147,-5.460137E-05
392.2147,-5.45929E-05
392.3147,-5.456465E-05
392.4147,-5.458065E-05
392.5147,-5.457595E-05
392.6147,-5.455899E-05
392.7148,-5.455334E-05
392.8148,-5.454581E-05
392.9148,-5.452886E-05
393.0148,-5.452698E-05
393.1148,-5.452227E-05
393.2148,-5.449873E-05
393.3148,-5.449308E-05
393.4148,-5.45185E-05
393.5148,-5.447801E-05
393.6148,-5.448177E-05
393.7148,-5.447047E-05
393.8148,-5.445447E-05
393.9148,-5.445541E-05
394.0148,-5.445823E-05
394.1148,-5.44394E-05
394.2148,-5.443186E-05
394.3148,-5.443751E-05
394.4149,-5.442433E-05
394.5149,-5.442056E-05
394.6149,-5.440549E-05
394.7149,-5.44102E-05
394.8149,-5.439043E-05
394.9149,-5.43989E-05
395.0149,-5.439137E-05
395.1149,-5.437441E-05
395.2149,-5.438101E-05
395.3149,-5.438289E-05
395.4149,-5.436688E-05
395.5149,-5.436877E-05
395.6149,-5.434616E-05
395.7149,-5.432545E-05
395.8149,-5.433769E-05
395.9149,-5.43245E-05
396.015,-5.429814E-05
396.115,-5.43132E-05
396.215,-5.428401E-05
396.315,-5.42567E-05
396.415,-5.428307E-05
396.515,-5.426329E-05
396.615,-5.426706E-05
396.715,-5.427271E-05
396.815,-5.42454E-05
396.915,-5.423316E-05
397.015,-5.421715E-05
397.115,-5.420867E-05
397.215,-5.41936E-05
397.315,-5.419172E-05
397.415,-5.416817E-05
397.515,-5.415688E-05
397.6151,-5.415876E-05
397.7151,-5.415594E-05
397.8151,-5.415311E-05
397.9151,-5.415122E-05
398.0151,-5.414557E-05
398.1151,-5.412486E-05
398.2151,-5.410226E-05
398.3151,-5.410603E-05
398.4151,-5.409378E-05
398.5151,-5.40966E-05
398.6151,-5.408153E-05
398.7151,-5.404764E-05
398.8151,-5.404387E-05
398.9151,-5.405517E-05
399.0151,-5.405611E-05
399.1151,-5.403916E-05
399.2151,-5.40288E-05
399.3152,-5.400526E-05
399.4152,-5.400432E-05
399.5152,-5.401185E-05
399.6152,-5.398642E-05
399.7152,-5.396006E-05
399.8152,-5.3961E-05
399.9152,-5.396288E-05
400.0152,-5.395535E-05
400.1152,-5.394216E-05
400.2152,-5.392145E-05
400.3152,-5.391391E-05
400.4152,-5.391862E-05
400.5152,-5.389131E-05
400.6152,-5.389131E-05
400.7152,-5.388754E-05
400.8152,-5.386494E-05
400.9153,-5.385929E-05
401.0153,-5.388284E-05
401.1153,-5.384987E-05
401.2153,-5.384987E-05
401.3153,-5.383386E-05
401.4153,-5.381315E-05
401.5153,-5.381408E-05
401.6153,-5.383763E-05
401.7153,-5.378866E-05
401.8153,-5.37783E-05
401.9153,-5.379996E-05
402.0153,-5.375193E-05
402.1153,-5.374817E-05
402.2153,-5.376983E-05
402.3153,-5.374911E-05
402.4153,-5.371049E-05
402.5154,-5.373498E-05
402.6154,-5.371049E-05
402.7154,-5.369826E-05
402.8154,-5.371332E-05
402.9154,-5.368978E-05
403.0154,-5.366247E-05
403.1154,-5.369072E-05
403.2154,-5.370108E-05
403.3154,-5.365682E-05
403.4154,-5.367283E-05
403.5154,-5.364928E-05
403.6154,-5.361632E-05
403.7154,-5.366812E-05
403.8154,-5.364457E-05
403.9154,-5.36135E-05
404.0154,-5.36361E-05
404.1154,-5.361444E-05
404.2155,-5.359372E-05
404.3155,-5.358807E-05
404.4155,-5.359372E-05
404.5155,-5.356641E-05
404.6155,-5.356264E-05
404.7155,-5.356358E-05
404.8155,-5.354946E-05
404.9155,-5.354758E-05
405.0155,-5.353628E-05
405.1155,-5.351273E-05
405.2155,-5.350237E-05
405.3155,-5.351838E-05
405.4155,-5.350049E-05
405.5155,-5.349013E-05
405.6155,-5.347506E-05
405.7155,-5.346847E-05
405.8156,-5.34713E-05
405.9156,-5.346659E-05
406.0156,-5.345246E-05
406.1156,-5.344022E-05
406.2156,-5.344493E-05
406.3156,-5.342609E-05
406.4156,-5.34308E-05
406.5156,-5.341856E-05
406.6156,-5.340161E-05
406.7156,-5.340538E-05
406.8156,-5.341103E-05
406.9156,-5.338654E-05
407.0156,-5.337335E-05
407.1156,-5.337807E-05
407.2156,-5.336488E-05
407.3156,-5.336112E-05
407.4156,-5.336865E-05
407.5157,-5.334604E-05
407.6157,-5.331779E-05
407.7157,-5.334699E-05
407.8157,-5.332344E-05
407.9157,-5.332816E-05
408.0157,-5.333945E-05
408.1157,-5.330367E-05
408.2157,-5.326694E-05
408.3157,-5.328106E-05
408.4157,-5.329613E-05
408.5157,-5.325093E-05
408.6157,-5.325658E-05
408.7157,-5.324999E-05
408.8157,-5.321515E-05
408.9157,-5.322268E-05
409.0157,-5.322645E-05
409.1158,-5.321515E-05
409.2158,-5.320573E-05
409.3158,-5.318407E-05
409.4158,-5.31803E-05
409.5158,-5.318218E-05
409.6158,-5.318972E-05
409.7158,-5.315205E-05
409.8158,-5.315016E-05
409.9158,-5.315299E-05
410.0158,-5.311155E-05
410.1158,-5.312474E-05
410.2158,-5.312474E-05
410.3158,-5.308801E-05
410.4158,-5.31012E-05
410.5158,-5.310308E-05
410.6158,-5.309178E-05
410.7159,-5.30899E-05
410.8159,-5.308048E-05
410.9159,-5.305505E-05
411.0159,-5.305505E-05
411.1159,-5.306635E-05
411.2159,-5.305505E-05
411.3159,-5.305505E-05
411.4159,-5.303904E-05
411.5159,-5.303151E-05
411.6159,-5.302021E-05
411.7159,-5.301927E-05
411.8159,-5.298065E-05
411.9159,-5.297783E-05
412.0159,-5.29816E-05
412.1159,-5.295523E-05
412.2159,-5.296088E-05
412.3159,-5.29477E-05
412.416,-5.29298E-05
412.516,-5.292697E-05
412.616,-5.293168E-05
412.716,-5.292697E-05
412.816,-5.289873E-05
412.916,-5.291661E-05
413.016,-5.288742E-05
413.116,-5.289966E-05
413.216,-5.286388E-05
413.316,-5.283186E-05
413.416,-5.281114E-05
413.516,-5.283374E-05
413.616,-5.282527E-05
413.716,-5.280172E-05
413.816,-5.282244E-05
413.916,-5.281585E-05
414.0161,-5.279042E-05
414.1161,-5.278383E-05
414.2161,-5.278195E-05
414.3161,-5.277347E-05
414.4161,-5.276217E-05
414.5161,-5.275652E-05
414.6161,-5.272733E-05
414.7161,-5.272733E-05
414.8161,-5.273769E-05
414.9161,-5.272356E-05
415.0161,-5.272356E-05
415.1161,-5.270567E-05
415.2161,-5.268684E-05
415.3161,-5.268212E-05
415.4161,-5.266517E-05
415.5161,-5.265199E-05
415.6161,-5.266046E-05
415.7162,-5.265576E-05
415.8162,-5.263221E-05
415.9162,-5.262656E-05
416.0162,-5.262374E-05
416.1162,-5.262374E-05
416.2162,-5.260302E-05
416.3162,-5.260585E-05
416.4162,-5.259266E-05
416.5162,-5.259172E-05
416.6162,-5.258795E-05
416.7162,-5.256629E-05
416.8162,-5.256253E-05
416.9162,-5.256818E-05
417.0162,-5.25484E-05
417.1162,-5.254369E-05
417.2162,-5.253145E-05
417.3163,-5.252391E-05
417.4163,-5.252109E-05
417.5163,-5.251544E-05
417.6163,-5.250037E-05
417.7163,-5.249566E-05
417.8163,-5.249661E-05
417.9163,-5.249472E-05
418.0163,-5.246647E-05
418.1163,-5.248624E-05
418.2163,-5.245611E-05
418.3163,-5.244387E-05
418.4163,-5.245611E-05
418.5163,-5.243822E-05
418.6163,-5.242503E-05
418.7163,-5.245517E-05
418.8163,-5.240337E-05
418.9164,-5.239489E-05
419.0164,-5.240808E-05
419.1164,-5.239207E-05
419.2164,-5.237041E-05
419.3164,-5.23723E-05
419.4164,-5.234687E-05
419.5164,-5.233745E-05
419.6164,-5.236005E-05
419.7164,-5.235064E-05
419.8164,-5.232144E-05
419.9164,-5.231203E-05
420.0164,-5.231767E-05
420.1164,-5.230732E-05
420.2164,-5.230355E-05
420.3164,-5.228377E-05
420.4164,-5.228754E-05
420.5164,-5.229978E-05
420.6165,-5.229131E-05
420.7165,-5.226682E-05
420.8165,-5.225929E-05
420.9165,-5.223763E-05
421.0165,-5.22574E-05
421.1165,-5.224328E-05
421.2165,-5.223292E-05
421.3165,-5.222444E-05
421.4165,-5.22235E-05
421.5165,-5.222162E-05
421.6165,-5.220184E-05
421.7165,-5.219808E-05
421.8165,-5.21896E-05
421.9165,-5.217642E-05
422.0165,-5.217359E-05
422.1165,-5.217265E-05
422.2166,-5.214722E-05
422.3166,-5.215946E-05
422.4166,-5.215193E-05
422.5166,-5.214063E-05
422.6166,-5.215382E-05
422.7166,-5.214157E-05
422.8166,-5.211614E-05
422.9166,-5.210861E-05
423.0166,-5.211049E-05
423.1166,-5.211049E-05
423.2166,-5.210013E-05
423.3166,-5.209354E-05
423.4166,-5.207848E-05
423.5166,-5.20587E-05
423.6166,-5.205588E-05
423.7166,-5.205493E-05
423.8167,-5.205399E-05
423.9167,-5.205023E-05
424.0167,-5.202292E-05
424.1167,-5.202762E-05
424.2167,-5.202574E-05
424.3167,-5.200031E-05
424.4167,-5.199184E-05
424.5167,-5.200408E-05
424.6167,-5.197112E-05
424.7167,-5.19843E-05
424.8167,-5.198147E-05
424.9167,-5.197018E-05
425.0167,-5.194381E-05
425.1167,-5.196076E-05
425.2167,-5.195605E-05
425.3167,-5.194381E-05
425.4167,-5.196264E-05
425.5168,-5.192309E-05
425.6168,-5.190331E-05
425.7168,-5.192215E-05
425.8168,-5.19099E-05
425.9168,-5.18939E-05
426.0168,-5.190614E-05
426.1168,-5.18826E-05
426.2168,-5.185435E-05
426.3168,-5.189578E-05
426.4168,-5.188919E-05
426.5168,-5.185905E-05
426.6168,-5.185623E-05
426.7168,-5.185999E-05
426.8168,-5.183174E-05
426.9168,-5.184116E-05
427.0168,-5.183551E-05
427.1169,-5.18195E-05
427.2169,-5.180066E-05
427.3169,-5.179125E-05
427.4169,-5.179125E-05
427.5169,-5.179219E-05
427.6169,-5.178278E-05
427.7169,-5.177241E-05
427.8169,-5.177335E-05
427.9169,-5.175923E-05
428.0169,-5.176582E-05
428.1169,-5.173945E-05
428.2169,-5.174322E-05
428.3169,-5.174322E-05
428.4169,-5.173097E-05
428.5169,-5.173757E-05
428.6169,-5.172062E-05
428.7169,-5.172344E-05
428.817,-5.169425E-05
428.917,-5.167636E-05
429.017,-5.167636E-05
429.117,-5.169143E-05
429.217,-5.167353E-05
429.317,-5.165752E-05
429.417,-5.165846E-05
429.517,-5.164057E-05
429.617,-5.163021E-05
429.717,-5.163868E-05
429.817,-5.162456E-05
429.917,-5.161138E-05
430.017,-5.162362E-05
430.117,-5.160479E-05
430.217,-5.159725E-05
430.317,-5.160196E-05
430.4171,-5.159914E-05
430.5171,-5.156052E-05
430.6171,-5.157559E-05
430.7171,-5.156711E-05
430.8171,-5.155393E-05
430.9171,-5.156994E-05
431.0171,-5.154734E-05
431.1171,-5.15238E-05
431.2171,-5.153321E-05
431.3171,-5.153981E-05
431.4171,-5.15172E-05
431.5171,-5.151909E-05
431.6171,-5.150873E-05
431.7171,-5.150778E-05
431.8171,-5.148707E-05
431.9171,-5.149178E-05
432.0172,-5.148612E-05
432.1172,-5.149084E-05
432.2172,-5.1472E-05
432.3172,-5.145693E-05
432.4172,-5.146352E-05
432.5172,-5.146729E-05
432.6172,-5.143621E-05
432.7172,-5.143151E-05
432.8172,-5.144092E-05
432.9172,-5.140984E-05
433.0172,-5.139572E-05
433.1172,-5.14089E-05
433.2172,-5.139101E-05
433.3172,-5.137501E-05
433.4172,-5.138065E-05
433.5172,-5.137406E-05
433.6172,-5.136747E-05
433.7173,-5.138254E-05
433.8173,-5.134863E-05
433.9173,-5.133922E-05
434.0173,-5.13524E-05
434.1173,-5.133451E-05
434.2173,-5.132603E-05
434.3173,-5.132886E-05
434.4173,-5.131473E-05
434.5173,-5.132321E-05
434.6173,-5.132603E-05
434.7173,-5.128836E-05
434.8173,-5.127329E-05
434.9173,-5.128742E-05
435.0173,-5.126953E-05
435.1173,-5.125635E-05
435.2173,-5.130154E-05
435.3174,-5.125446E-05
435.4174,-5.122903E-05
435.5174,-5.125728E-05
435.6174,-5.124222E-05
435.7174,-5.121585E-05
435.8174,-5.123375E-05
435.9174,-5.121773E-05
436.0174,-5.11989E-05
436.1174,-5.121773E-05
436.2174,-5.119796E-05
436.3174,-5.117347E-05
436.4174,-5.118383E-05
436.5174,-5.116971E-05
436.6174,-5.116971E-05
436.7174,-5.117347E-05
436.8174,-5.1165E-05
436.9174,-5.113863E-05
437.0175,-5.114804E-05
437.1175,-5.115652E-05
437.2175,-5.112544E-05
437.3175,-5.113769E-05
437.4175,-5.110755E-05
437.5175,-5.110661E-05
437.6175,-5.110002E-05
437.7175,-5.11132E-05
437.8175,-5.109908E-05
437.9175,-5.108966E-05
438.0175,-5.106705E-05
438.1175,-5.106329E-05
438.2175,-5.10793E-05
438.3175,-5.105952E-05
438.4175,-5.106517E-05
438.5175,-5.105858E-05
438.6176,-5.105575E-05
438.7176,-5.104446E-05
438.8176,-5.102939E-05
438.9176,-5.103786E-05
439.0176,-5.100208E-05
439.1176,-5.100208E-05
439.2176,-5.101526E-05
439.3176,-5.097853E-05
439.4176,-5.099266E-05
439.5176,-5.099737E-05
439.6176,-5.097006E-05
439.7176,-5.096064E-05
439.8176,-5.095499E-05
439.9176,-5.094746E-05
440.0176,-5.093521E-05
440.1176,-5.095216E-05
440.2177,-5.092109E-05
440.3177,-5.090414E-05
440.4177,-5.092297E-05
440.5177,-5.092015E-05
440.6177,-5.091544E-05
440.7177,-5.090884E-05
440.8177,-5.087306E-05
440.9177,-5.086836E-05
441.0177,-5.089095E-05
441.1177,-5.086458E-05
441.2177,-5.085705E-05
441.3177,-5.08627E-05
441.4177,-5.085234E-05
441.5177,-5.083162E-05
441.6177,-5.083445E-05
441.7177,-5.08175E-05
441.8177,-5.080055E-05
441.9178,-5.08109E-05
442.0178,-5.079489E-05
442.1178,-5.078171E-05
442.2178,-5.079113E-05
442.3178,-5.077041E-05
442.4178,-5.075534E-05
442.5178,-5.07657E-05
442.6178,-5.07657E-05
442.7178,-5.07431E-05
442.8178,-5.07431E-05
442.9178,-5.074687E-05
443.0178,-5.071579E-05
443.1178,-5.069507E-05
443.2178,-5.072615E-05
443.3178,-5.072615E-05
443.4178,-5.068565E-05
443.5179,-5.067718E-05
443.6179,-5.066494E-05
443.7179,-5.065929E-05
443.8179,-5.068471E-05
443.9179,-5.064893E-05
444.0179,-5.06235E-05
444.1179,-5.065081E-05
444.2179,-5.062256E-05
444.3179,-5.061974E-05
444.4179,-5.062821E-05
444.5179,-5.058583E-05
444.6179,-5.059148E-05
444.7179,-5.061691E-05
444.8179,-5.058301E-05
444.9179,-5.058866E-05
445.0179,-5.056511E-05
445.118,-5.054063E-05
445.218,-5.053498E-05
445.318,-5.057265E-05
445.418,-5.054063E-05
445.518,-5.051426E-05
445.618,-5.05331E-05
445.718,-5.050296E-05
445.818,-5.050107E-05
445.918,-5.050296E-05
446.018,-5.047659E-05
446.118,-5.046058E-05
446.218,-5.048318E-05
446.318,-5.045399E-05
446.418,-5.045116E-05
446.518,-5.044834E-05
446.618,-5.042291E-05
446.718,-5.041538E-05
446.8181,-5.04248E-05
446.9181,-5.041067E-05
447.0181,-5.038901E-05
447.1181,-5.03843E-05
447.2181,-5.039655E-05
447.3181,-5.037394E-05
447.4181,-5.036641E-05
447.5181,-5.035322E-05
447.6181,-5.036735E-05
447.7181,-5.03909E-05
447.8181,-5.036076E-05
447.9181,-5.035322E-05
448.0181,-5.036076E-05
448.1181,-5.035417E-05
448.2181,-5.034192E-05
448.3181,-5.033251E-05
448.4182,-5.032026E-05
448.5182,-5.031273E-05
448.6182,-5.031932E-05
448.7182,-5.031367E-05
448.8182,-5.026659E-05
448.9182,-5.029955E-05
449.0182,-5.028919E-05
449.1182,-5.023268E-05
449.2182,-5.024963E-05
449.3182,-5.026564E-05
449.4182,-5.026094E-05
449.5182,-5.024869E-05
449.6182,-5.023833E-05
449.7182,-5.021856E-05
449.8182,-5.02195E-05
449.9182,-5.021102E-05
450.0182,-5.021197E-05
450.1183,-5.022609E-05
450.2183,-5.01969E-05
450.3183,-5.017994E-05
450.4183,-5.018842E-05
450.5183,-5.019407E-05
450.6183,-5.016299E-05
450.7183,-5.015734E-05
450.8183,-5.018089E-05
450.9183,-5.014133E-05
451.0183,-5.013003E-05
451.1183,-5.01112E-05
451.2183,-5.012062E-05
451.3183,-5.011026E-05
451.4183,-5.010837E-05
451.5183,-5.007729E-05
451.6183,-5.009614E-05
451.7184,-5.009048E-05
451.8184,-5.005187E-05
451.9184,-5.004905E-05
452.0184,-5.006223E-05
452.1184,-5.007729E-05
452.2184,-5.005846E-05
452.3184,-5.003115E-05
452.4184,-5.004433E-05
452.5184,-5.004622E-05
452.6184,-5.005281E-05
452.7184,-5.00368E-05
452.8184,-4.999725E-05
452.9184,-5.003398E-05
453.0184,-5.001985E-05
453.1184,-4.999819E-05
453.2184,-4.999631E-05
453.3185,-4.998689E-05
453.4185,-4.999254E-05
453.5185,-4.997465E-05
453.6185,-4.997559E-05
453.7185,-4.996806E-05
453.8185,-4.995487E-05
453.9185,-4.995676E-05
454.0185,-4.994074E-05
454.1185,-4.992851E-05
454.2185,-4.992379E-05
454.3185,-4.990119E-05
454.4185,-4.991532E-05
454.5185,-4.991061E-05
454.6185,-4.989837E-05
454.7185,-4.989743E-05
454.8185,-4.98946E-05
454.9185,-4.987671E-05
455.0186,-4.988047E-05
455.1186,-4.987483E-05
455.2186,-4.985222E-05
455.3186,-4.985693E-05
455.4186,-4.98541E-05
455.5186,-4.983245E-05
455.6186,-4.981926E-05
455.7186,-4.982679E-05
455.8186,-4.982679E-05
455.9186,-4.979666E-05
456.0186,-4.98089E-05
456.1186,-4.979195E-05
456.2186,-4.9775E-05
456.3186,-4.980137E-05
456.4186,-4.978348E-05
456.5186,-4.976652E-05
456.6187,-4.977123E-05
456.7187,-4.975146E-05
456.8187,-4.975711E-05
456.9187,-4.975146E-05
457.0187,-4.975146E-05
457.1187,-4.972697E-05
457.2187,-4.974298E-05
457.3187,-4.970532E-05
457.4187,-4.971944E-05
457.5187,-4.972415E-05
457.6187,-4.970437E-05
457.7187,-4.96959E-05
457.8187,-4.970625E-05
457.9187,-4.967423E-05
458.0187,-4.968365E-05
458.1187,-4.969966E-05
458.2188,-4.96667E-05
458.3188,-4.966199E-05
458.4188,-4.966953E-05
458.5188,-4.964316E-05
458.6188,-4.965163E-05
458.7188,-4.964881E-05
458.8188,-4.96215E-05
458.9188,-4.962809E-05
459.0188,-4.962527E-05
459.1188,-4.960832E-05
459.2188,-4.961114E-05
459.3188,-4.960549E-05
459.4188,-4.959231E-05
459.5188,-4.958477E-05
459.6188,-4.957441E-05
459.7188,-4.957912E-05
459.8188,-4.957441E-05
459.9189,-4.958195E-05
460.0189,-4.956123E-05
460.1189,-4.953768E-05
460.2189,-4.956594E-05
460.3189,-4.953674E-05
460.4189,-4.953109E-05
460.5189,-4.953486E-05
460.6189,-4.951885E-05
460.7189,-4.948966E-05
460.8189,-4.952544E-05
460.9189,-4.950284E-05
461.0189,-4.949154E-05
461.1189,-4.951038E-05
461.2189,-4.948401E-05
461.3189,-4.946329E-05
461.4189,-4.94906E-05
461.519,-4.945764E-05
461.619,-4.94567E-05
461.719,-4.947082E-05
461.819,-4.945387E-05
461.919,-4.944351E-05
462.019,-4.94388E-05
462.119,-4.943221E-05
462.219,-4.942374E-05
462.319,-4.943597E-05
462.419,-4.941902E-05
462.519,-4.939925E-05
462.619,-4.939078E-05
462.719,-4.939266E-05
462.819,-4.938983E-05
462.919,-4.936912E-05
463.019,-4.93644E-05
463.119,-4.9371E-05
463.2191,-4.936346E-05
463.3191,-4.9371E-05
463.4191,-4.935499E-05
463.5191,-4.934369E-05
463.6191,-4.933898E-05
463.7191,-4.932862E-05
463.8191,-4.932109E-05
463.9191,-4.931167E-05
464.0191,-4.931167E-05
464.1191,-4.930696E-05
464.2191,-4.929755E-05
464.3191,-4.929943E-05
464.4191,-4.928718E-05
464.5191,-4.928624E-05
464.6191,-4.926741E-05
464.7191,-4.924951E-05
464.8192,-4.926082E-05
464.9192,-4.925799E-05
465.0192,-4.923727E-05
465.1192,-4.922598E-05
465.2192,-4.922786E-05
465.3192,-4.921467E-05
465.4192,-4.922503E-05
465.5192,-4.921279E-05
465.6192,-4.919489E-05
465.7192,-4.91996E-05
465.8192,-4.919395E-05
465.9192,-4.916382E-05
466.0192,-4.918736E-05
466.1192,-4.915157E-05
466.2192,-4.915346E-05
466.3192,-4.91544E-05
466.4193,-4.914875E-05
466.5193,-4.914404E-05
466.6193,-4.913744E-05
466.7193,-4.91431E-05
466.8193,-4.911768E-05
466.9193,-4.911673E-05
467.0193,-4.911202E-05
467.1193,-4.909695E-05
467.2193,-4.908377E-05
467.3193,-4.90866E-05
467.4193,-4.905552E-05
467.5193,-4.905081E-05
467.6193,-4.905928E-05
467.7193,-4.904704E-05
467.8193,-4.904045E-05
467.9193,-4.903857E-05
468.0193,-4.901314E-05
468.1194,-4.901879E-05
468.2194,-4.900372E-05
468.3194,-4.902538E-05
468.4194,-4.900561E-05
468.5194,-4.901597E-05
468.6194,-4.900184E-05
468.7194,-4.898206E-05
468.8194,-4.897924E-05
468.9194,-4.896794E-05
469.0194,-4.896323E-05
469.1194,-4.897736E-05
469.2194,-4.895098E-05
469.3194,-4.892932E-05
469.4194,-4.89491E-05
469.5194,-4.893121E-05
469.6194,-4.892838E-05
469.7195,-4.893498E-05
469.8195,-4.891709E-05
469.9195,-4.889919E-05
470.0195,-4.891614E-05
470.1195,-4.888506E-05
470.2195,-4.888412E-05
470.3195,-4.889919E-05
470.4195,-4.888129E-05
470.5195,-4.886341E-05
470.6195,-4.888129E-05
470.7195,-4.886341E-05
470.8195,-4.884363E-05
470.9195,-4.885399E-05
471.0195,-4.885493E-05
471.1195,-4.882009E-05
471.2195,-4.884834E-05
471.3195,-4.883798E-05
471.4196,-4.881161E-05
471.5196,-4.881349E-05
471.6196,-4.880878E-05
471.7196,-4.879183E-05
471.8196,-4.880031E-05
471.9196,-4.879466E-05
472.0196,-4.876641E-05
472.1196,-4.877488E-05
472.2196,-4.878524E-05
472.3196,-4.876735E-05
472.4196,-4.876076E-05
472.5196,-4.876076E-05
472.6196,-4.875417E-05
472.7196,-4.874098E-05
472.8196,-4.875793E-05
472.9196,-4.87391E-05
473.0197,-4.872214E-05
473.1197,-4.873721E-05
473.2197,-4.870614E-05
473.3197,-4.870519E-05
473.4197,-4.871461E-05
473.5197,-4.870991E-05
473.6197,-4.870425E-05
473.7197,-4.869766E-05
473.8197,-4.867883E-05
473.9197,-4.866375E-05
474.0197,-4.869013E-05
474.1197,-4.867883E-05
474.2197,-4.866564E-05
474.3197,-4.866753E-05
474.4197,-4.864869E-05
474.5197,-4.865152E-05
474.6198,-4.866847E-05
474.7198,-4.862985E-05
474.8198,-4.863456E-05
474.9198,-4.863174E-05
475.0198,-4.862421E-05
475.1198,-4.862515E-05
475.2198,-4.863927E-05
475.3198,-4.861008E-05
475.4198,-4.860066E-05
475.5198,-4.861196E-05
475.6198,-4.858465E-05
475.7198,-4.856299E-05
475.8198,-4.859596E-05
475.9198,-4.857335E-05
476.0198,-4.855358E-05
476.1198,-4.858465E-05
476.2198,-4.856581E-05
476.3199,-4.854981E-05
476.4199,-4.855828E-05
476.5199,-4.85338E-05
476.6199,-4.853097E-05
476.7199,-4.856017E-05
476.8199,-4.853474E-05
476.9199,-4.850743E-05
477.0199,-4.851873E-05
477.1199,-4.851779E-05
477.2199,-4.84886E-05
477.3199,-4.850837E-05
477.4199,-4.850084E-05
477.5199,-4.847447E-05
477.6199,-4.849424E-05
477.7199,-4.848671E-05
477.8199,-4.846882E-05
477.92,-4.847729E-05
478.02,-4.846411E-05
478.12,-4.846411E-05
478.22,-4.846034E-05
478.32,-4.844151E-05
478.42,-4.845093E-05
478.52,-4.843021E-05
478.62,-4.843303E-05
478.72,-4.844057E-05
478.82,-4.841797E-05
478.92,-4.841232E-05
479.02,-4.841514E-05
479.12,-4.84142E-05
479.22,-4.838877E-05
479.32,-4.839254E-05
479.42,-4.839066E-05
479.5201,-4.837841E-05
479.6201,-4.835487E-05
479.7201,-4.838877E-05
479.8201,-4.839254E-05
479.9201,-4.83577E-05
480.0201,-4.832944E-05
480.1201,-4.835487E-05
480.2201,-4.836146E-05
480.3201,-4.832191E-05
480.4201,-4.833321E-05
480.5201,-4.831814E-05
480.6201,-4.830213E-05
480.7201,-4.834263E-05
480.8201,-4.831814E-05
480.9201,-4.830402E-05
481.0201,-4.831626E-05
481.1201,-4.831909E-05
481.2202,-4.829742E-05
481.3202,-4.828518E-05
481.4202,-4.828236E-05
481.5202,-4.828989E-05
481.6202,-4.826729E-05
481.7202,-4.826635E-05
481.8202,-4.823809E-05
481.9202,-4.824845E-05
482.0202,-4.825222E-05
482.1202,-4.823433E-05
482.2202,-4.821361E-05
482.3202,-4.821361E-05
482.4202,-4.822114E-05
482.5202,-4.821361E-05
482.6202,-4.820702E-05
482.7202,-4.817876E-05
482.8203,-4.817876E-05
482.9203,-4.819948E-05
483.0203,-4.817594E-05
483.1203,-4.816935E-05
483.2203,-4.813733E-05
483.3203,-4.814015E-05
483.4203,-4.81524E-05
483.5203,-4.814204E-05
483.6203,-4.81119E-05
483.7203,-4.811756E-05
483.8203,-4.81119E-05
483.9203,-4.809684E-05
484.0203,-4.810814E-05
484.1203,-4.810814E-05
484.2203,-4.808082E-05
484.3203,-4.807141E-05
484.4203,-4.808553E-05
484.5204,-4.809778E-05
484.6204,-4.8078E-05
484.7204,-4.804033E-05
484.8204,-4.802338E-05
484.9204,-4.803656E-05
485.0204,-4.804975E-05
485.1204,-4.802997E-05
485.2204,-4.804033E-05
485.3204,-4.802056E-05
485.4204,-4.801868E-05
485.5204,-4.802903E-05
485.6204,-4.801585E-05
485.7204,-4.799042E-05
485.8204,-4.800266E-05
485.9204,-4.798477E-05
486.0204,-4.798571E-05
486.1205,-4.79923E-05
486.2205,-4.798571E-05
486.3205,-4.797347E-05
486.4205,-4.797347E-05
486.5205,-4.795557E-05
486.6205,-4.796029E-05
486.7205,-4.795557E-05
486.8205,-4.794239E-05
486.9205,-4.794239E-05
487.0205,-4.794616E-05
487.1205,-4.790566E-05
487.2205,-4.790378E-05
487.3205,-4.792261E-05
487.4205,-4.791038E-05
487.5205,-4.791602E-05
487.6205,-4.790472E-05
487.7206,-4.79019E-05
487.8206,-4.78906E-05
487.9206,-4.79019E-05
488.0206,-4.787741E-05
488.1206,-4.786894E-05
488.2206,-4.785952E-05
488.3206,-4.786328E-05
488.4206,-4.785198E-05
488.5206,-4.784069E-05
488.6206,-4.783409E-05
488.7206,-4.781243E-05
488.8206,-4.783409E-05
488.9206,-4.781432E-05
489.0206,-4.779925E-05
489.1206,-4.780396E-05
489.2206,-4.780961E-05
489.3206,-4.779831E-05
489.4207,-4.779925E-05
489.5207,-4.778983E-05
489.6207,-4.776818E-05
489.7207,-4.777947E-05
489.8207,-4.777099E-05
489.9207,-4.776818E-05
490.0207,-4.776252E-05
490.1207,-4.777664E-05
490.2207,-4.775687E-05
490.3207,-4.777006E-05
490.4207,-4.775687E-05
490.5207,-4.77305E-05
490.6207,-4.775028E-05
490.7207,-4.775499E-05
490.8207,-4.771261E-05
490.9207,-4.771355E-05
491.0208,-4.773709E-05
491.1208,-4.774463E-05
491.2208,-4.771449E-05
491.3208,-4.777099E-05
491.4208,-4.774368E-05
491.5208,-4.770131E-05
491.6208,-4.773803E-05
491.7208,-4.771261E-05
491.8208,-4.770319E-05
491.9208,-4.769849E-05
492.0208,-4.769377E-05
492.1208,-4.768624E-05
492.2208,-4.767588E-05
492.3208,-4.764292E-05
492.4208,-4.763821E-05
492.5208,-4.7674E-05
492.6208,-4.765516E-05
492.7209,-4.760713E-05
492.8209,-4.763256E-05
492.9209,-4.762032E-05
493.0209,-4.760525E-05
493.1209,-4.761561E-05
493.2209,-4.759395E-05
493.3209,-4.756852E-05
493.4209,-4.759207E-05
493.5209,-4.758171E-05
493.6209,-4.757229E-05
493.7209,-4.75544E-05
493.8209,-4.756005E-05
493.9209,-4.75544E-05
494.0209,-4.754216E-05
494.1209,-4.753933E-05
494.2209,-4.752426E-05
494.321,-4.753086E-05
494.421,-4.753556E-05
494.521,-4.751579E-05
494.621,-4.751861E-05
494.721,-4.750637E-05
494.821,-4.749978E-05
494.921,-4.749506E-05
495.021,-4.74913E-05
495.121,-4.747623E-05
495.221,-4.748471E-05
495.321,-4.748377E-05
495.421,-4.744892E-05
495.521,-4.744798E-05
495.621,-4.746211E-05
495.721,-4.744516E-05
495.821,-4.741502E-05
495.9211,-4.743103E-05
496.0211,-4.74122E-05
496.1211,-4.741126E-05
496.2211,-4.744233E-05
496.3211,-4.740843E-05
496.4211,-4.738488E-05
496.5211,-4.740184E-05
496.6211,-4.740278E-05
496.7211,-4.738206E-05
496.8211,-4.739242E-05
496.9211,-4.735852E-05
497.0211,-4.735098E-05
497.1211,-4.737547E-05
497.2211,-4.736699E-05
497.3211,-4.734816E-05
497.4211,-4.735192E-05
497.5211,-4.733874E-05
497.6212,-4.732462E-05
497.7212,-4.731332E-05
497.8212,-4.731049E-05
497.9212,-4.729825E-05
498.0212,-4.730767E-05
498.1212,-4.730672E-05
498.2212,-4.729637E-05
498.3212,-4.72973E-05
498.4212,-4.729448E-05
498.5212,-4.727094E-05
498.6212,-4.727847E-05
498.7212,-4.727376E-05
498.8212,-4.725587E-05
498.9212,-4.726246E-05
499.0212,-4.724739E-05
499.1212,-4.723798E-05
499.2213,-4.723421E-05
499.3213,-4.724363E-05
499.4213,-4.721067E-05
499.5213,-4.721631E-05
499.6213,-4.721443E-05
499.7213,-4.720125E-05
499.8213,-4.721537E-05
499.9213,-4.722856E-05
500.0213,-4.719466E-05
500.1213,-4.719466E-05
500.2213,-4.72069E-05
500.3213,-4.718336E-05
500.4213,-4.719277E-05
500.5213,-4.720784E-05
500.6213,-4.718712E-05
500.7213,-4.719372E-05
500.8214,-4.717959E-05
500.9214,-4.716452E-05
501.0214,-4.715228E-05
501.1214,-4.715699E-05
501.2214,-4.716075E-05
501.3214,-4.713815E-05
501.4214,-4.71504E-05
501.5214,-4.715228E-05
501.6214,-4.713627E-05
501.7214,-4.714945E-05
501.8214,-4.713815E-05
501.9214,-4.712591E-05
502.0214,-4.712873E-05
502.1214,-4.712309E-05
502.2214,-4.709766E-05
502.3214,-4.711461E-05
502.4214,-4.710237E-05
502.5215,-4.708824E-05
502.6215,-4.708824E-05
502.7215,-4.707223E-05
502.8215,-4.706658E-05
502.9215,-4.708824E-05
503.0215,-4.706658E-05
503.1215,-4.706658E-05
503.2215,-4.704587E-05
503.3215,-4.704304E-05
503.4215,-4.702609E-05
503.5215,-4.704775E-05
503.6215,-4.703174E-05
503.7215,-4.701008E-05
503.8215,-4.701008E-05
503.9215,-4.699595E-05
504.0215,-4.698277E-05
504.1216,-4.699972E-05
504.2216,-4.698465E-05
504.3216,-4.6979E-05
504.4216,-4.697711E-05
504.5216,-4.697711E-05
504.6216,-4.697523E-05
504.7216,-4.69564E-05
504.8216,-4.694133E-05
504.9216,-4.693474E-05
505.0216,-4.69564E-05
505.1216,-4.694133E-05
505.2216,-4.691967E-05
505.3216,-4.691873E-05
505.4216,-4.689613E-05
505.5216,-4.691214E-05
505.6216,-4.691685E-05
505.7216,-4.69159E-05
505.8217,-4.687917E-05
505.9217,-4.690743E-05
506.0217,-4.688671E-05
506.1217,-4.6882E-05
506.2217,-4.687258E-05
506.3217,-4.686317E-05
506.4217,-4.686694E-05
506.5217,-4.684622E-05
506.6217,-4.687447E-05
506.7217,-4.684057E-05
506.8217,-4.682926E-05
506.9217,-4.682738E-05
507.0217,-4.683963E-05
507.1217,-4.683963E-05
507.2217,-4.68255E-05
507.3217,-4.680572E-05
507.4218,-4.681231E-05
507.5218,-4.681231E-05
507.6218,-4.681043E-05
507.7218,-4.67963E-05
507.8218,-4.678595E-05
507.9218,-4.677559E-05
508.0218,-4.676711E-05
508.1218,-4.680101E-05
508.2218,-4.677088E-05
508.3218,-4.676994E-05
508.4218,-4.676052E-05
508.5218,-4.675392E-05
508.6218,-4.674169E-05
508.7218,-4.675675E-05
508.8218,-4.67285E-05
508.9218,-4.672662E-05
509.0219,-4.674639E-05
509.1219,-4.673133E-05
509.2219,-4.67059E-05
509.3219,-4.670684E-05
509.4219,-4.670213E-05
509.5219,-4.670496E-05
509.6219,-4.671626E-05
509.7219,-4.668235E-05
509.8219,-4.667671E-05
509.9219,-4.670778E-05
510.0219,-4.669365E-05
510.1219,-4.666729E-05
510.2219,-4.667576E-05
510.3219,-4.667953E-05
510.4219,-4.667859E-05
510.5219,-4.667765E-05
510.6219,-4.665504E-05
510.722,-4.663998E-05
510.822,-4.666258E-05
510.922,-4.665881E-05
511.022,-4.664092E-05
511.122,-4.666352E-05
511.222,-4.661549E-05
511.322,-4.662208E-05
511.422,-4.665128E-05
511.522,-4.661078E-05
511.622,-4.658819E-05
511.722,-4.662962E-05
511.822,-4.663338E-05
511.922,-4.661078E-05
512.022,-4.660325E-05
512.122,-4.659383E-05
512.222,-4.657406E-05
512.322,-4.658064E-05
512.4219,-4.659948E-05
512.5219,-4.657782E-05
512.6219,-4.656558E-05
512.7219,-4.655428E-05
512.8218,-4.654015E-05
512.9218,-4.655334E-05
513.0218,-4.655334E-05
513.1218,-4.652603E-05
513.2217,-4.65298E-05
513.3217,-4.651096E-05
513.4217,-4.652226E-05
513.5217,-4.65185E-05
513.6216,-4.649777E-05
513.7216,-4.648836E-05
513.8216,-4.649212E-05
513.9216,-4.647988E-05
514.0215,-4.647612E-05
514.1215,-4.647141E-05
514.2215,-4.645163E-05
514.3215,-4.645069E-05
514.4214,-4.648459E-05
514.5214,-4.650249E-05
514.6214,-4.643562E-05
514.7214,-4.647141E-05
514.8214,-4.645257E-05
514.9213,-4.643091E-05
515.0213,-4.645163E-05
515.1213,-4.646011E-05
515.2213,-4.644975E-05
515.3212,-4.645352E-05
515.4212,-4.645257E-05
515.5212,-4.643091E-05
515.6212,-4.64262E-05
515.7211,-4.642056E-05
515.8211,-4.643186E-05
515.9211,-4.641679E-05
516.0211,-4.643468E-05
516.121,-4.640925E-05
516.221,-4.63763E-05
516.321,-4.639607E-05
516.421,-4.637818E-05
516.5209,-4.637347E-05
516.6209,-4.638383E-05
516.7209,-4.634145E-05
516.8209,-4.632261E-05
516.9208,-4.634804E-05
517.0208,-4.634615E-05
517.1208,-4.63245E-05
517.2208,-4.631414E-05
517.3207,-4.630472E-05
517.4207,-4.63245E-05
517.5207,-4.63245E-05
517.6207,-4.630943E-05
517.7206,-4.627553E-05
517.8206,-4.629813E-05
517.9206,-4.630378E-05
518.0206,-4.627364E-05
518.1205,-4.627835E-05
518.2205,-4.624633E-05
518.3205,-4.624445E-05
518.4205,-4.627458E-05
518.5204,-4.626705E-05
518.6204,-4.62614E-05
518.7204,-4.625481E-05
518.8204,-4.624822E-05
518.9203,-4.623692E-05
519.0203,-4.62501E-05
519.1203,-4.623503E-05
519.2203,-4.621714E-05
519.3203,-4.624257E-05
519.4202,-4.62209E-05
519.5202,-4.620961E-05
519.6202,-4.622185E-05
519.7202,-4.619831E-05
519.8201,-4.618512E-05
519.9201,-4.621243E-05
520.0201,-4.617759E-05
520.1201,-4.61757E-05
520.22,-4.618041E-05
520.32,-4.617382E-05
520.42,-4.616158E-05
520.52,-4.615781E-05
520.6199,-4.61823E-05
520.7199,-4.614274E-05
520.8199,-4.615781E-05
520.9199,-4.613709E-05
521.0198,-4.614274E-05
521.1198,-4.614745E-05
521.2198,-4.613804E-05
521.3198,-4.611449E-05
521.4197,-4.612202E-05
521.5197,-4.611449E-05
521.6197,-4.612673E-05
521.7197,-4.611261E-05
521.8196,-4.609942E-05
521.9196,-4.609095E-05
522.0196,-4.608718E-05
522.1196,-4.610695E-05
522.2195,-4.609377E-05
522.3195,-4.608153E-05
522.4195,-4.607682E-05
522.5195,-4.606835E-05
522.6194,-4.605704E-05
522.7194,-4.606835E-05
522.8194,-4.605704E-05
522.9194,-4.605516E-05
523.0193,-4.606364E-05
523.1193,-4.604857E-05
523.2193,-4.603538E-05
523.3193,-4.603633E-05
523.4193,-4.602973E-05
523.5192,-4.603162E-05
523.6192,-4.603821E-05
523.7192,-4.601655E-05
523.8192,-4.600337E-05
523.9191,-4.603256E-05
524.0191,-4.601184E-05
524.1191,-4.599489E-05
524.2191,-4.601467E-05
524.319,-4.598265E-05
524.419,-4.599395E-05
524.519,-4.599489E-05
524.619,-4.597135E-05
524.7189,-4.597041E-05
524.8189,-4.599678E-05
524.9189,-4.597512E-05
525.0189,-4.595534E-05
525.1188,-4.597512E-05
525.2188,-4.594875E-05
525.3188,-4.594121E-05
525.4188,-4.596853E-05
525.5187,-4.59139E-05
525.6187,-4.593368E-05
525.7187,-4.595534E-05
525.8187,-4.596947E-05
525.9186,-4.592237E-05
526.0186,-4.593839E-05
526.1186,-4.59365E-05
526.2186,-4.590731E-05
526.3185,-4.589695E-05
526.4185,-4.591296E-05
526.5185,-4.591202E-05
526.6185,-4.588283E-05
526.7184,-4.588848E-05
526.8184,-4.586681E-05
526.9184,-4.588942E-05
527.0184,-4.588848E-05
527.1183,-4.584045E-05
527.2183,-4.586211E-05
527.3183,-4.588188E-05
527.4183,-4.582538E-05
527.5182,-4.583668E-05
527.6182,-4.587435E-05
527.7182,-4.586681E-05
527.8182,-4.583668E-05
527.9182,-4.583009E-05
528.0181,-4.584798E-05
528.1181,-4.585457E-05
528.2181,-4.58348E-05
528.3181,-4.582067E-05
528.418,-4.578865E-05
528.518,-4.582161E-05
528.618,-4.581973E-05
528.718,-4.580749E-05
528.8179,-4.580089E-05
528.9179,-4.579054E-05
529.0179,-4.579242E-05
529.1179,-4.58235E-05
529.2178,-4.578583E-05
529.3178,-4.575663E-05
529.4178,-4.577453E-05
529.5178,-4.577076E-05
529.6177,-4.576511E-05
529.7177,-4.576228E-05
529.8177,-4.573591E-05
529.9177,-4.57491E-05
530.0176,-4.574062E-05
530.1176,-4.574156E-05
530.2176,-4.573121E-05
530.3176,-4.573121E-05
530.4175,-4.570296E-05
530.5175,-4.569448E-05
530.6175,-4.573497E-05
530.7175,-4.570766E-05
530.8174,-4.569542E-05
530.9174,-4.570484E-05
531.0174,-4.569165E-05
531.1174,-4.567565E-05
531.2173,-4.571614E-05
531.3173,-4.568224E-05
531.4173,-4.56521E-05
531.5173,-4.566905E-05
531.6172,-4.565116E-05
531.7172,-4.565681E-05
531.8172,-4.566717E-05
531.9172,-4.564739E-05
532.0172,-4.562573E-05
532.1171,-4.564927E-05
532.2171,-4.563986E-05
532.3171,-4.562761E-05
532.4171,-4.563797E-05
532.517,-4.562668E-05
532.617,-4.560501E-05
532.717,-4.563044E-05
532.817,-4.56182E-05
532.9169,-4.55956E-05
533.0169,-4.560784E-05
533.1169,-4.560973E-05
533.2169,-4.558901E-05
533.3168,-4.560313E-05
533.4168,-4.559089E-05
533.5168,-4.558053E-05
533.6168,-4.558618E-05
533.7167,-4.556452E-05
533.8167,-4.557676E-05
533.9167,-4.556923E-05
534.0167,-4.555604E-05
534.1166,-4.55438E-05
534.2166,-4.552685E-05
534.3166,-4.554663E-05
534.4166,-4.553439E-05
534.5165,-4.554004E-05
534.6165,-4.552685E-05
534.7165,-4.549483E-05
534.8165,-4.550613E-05
534.9164,-4.551837E-05
535.0164,-4.548165E-05
535.1164,-4.548165E-05
535.2164,-4.549295E-05
535.3163,-4.548353E-05
535.4163,-4.54873E-05
535.5163,-4.547317E-05
535.6163,-4.545999E-05
535.7162,-4.545999E-05
535.8162,-4.547506E-05
535.9162,-4.546093E-05
536.0162,-4.544115E-05
536.1161,-4.544963E-05
536.2161,-4.540819E-05
536.3161,-4.541761E-05
536.4161,-4.545904E-05
536.5161,-4.542232E-05
536.616,-4.542232E-05
536.716,-4.54242E-05
536.816,-4.542232E-05
536.916,-4.540819E-05
537.0159,-4.541102E-05
537.1159,-4.539595E-05
537.2159,-4.538936E-05
537.3159,-4.54129E-05
537.4158,-4.538089E-05
537.5158,-4.537335E-05
537.6158,-4.537617E-05
537.7158,-4.537429E-05
537.8157,-4.536299E-05
537.9157,-4.53564E-05
538.0157,-4.536958E-05
538.1157,-4.535451E-05
538.2156,-4.533473E-05
538.3156,-4.537052E-05
538.4156,-4.534133E-05
538.5156,-4.536393E-05
538.6155,-4.53272E-05
538.7155,-4.532532E-05
538.8155,-4.53451E-05
538.9155,-4.531873E-05
539.0154,-4.530742E-05
539.1154,-4.532626E-05
539.2154,-4.53159E-05
539.3154,-4.530366E-05
539.4153,-4.528388E-05
539.5153,-4.531402E-05
539.6153,-4.529142E-05
539.7153,-4.526222E-05
539.8152,-4.529048E-05
539.9152,-4.528671E-05
540.0152,-4.528106E-05
540.1152,-4.527258E-05
540.2151,-4.523491E-05
540.3151,-4.524339E-05
540.4151,-4.526505E-05
540.5151,-4.526505E-05
540.6151,-4.522832E-05
540.715,-4.52481E-05
540.815,-4.521796E-05
540.915,-4.521419E-05
541.015,-4.522832E-05
541.1149,-4.520666E-05
541.2149,-4.518688E-05
541.3149,-4.521702E-05
541.4149,-4.524622E-05
541.5148,-4.518877E-05
541.6148,-4.518595E-05
541.7148,-4.520007E-05
541.8148,-4.51737E-05
541.9147,-4.520949E-05
542.0147,-4.519913E-05
542.1147,-4.514545E-05
542.2147,-4.515958E-05
542.3146,-4.518218E-05
542.4146,-4.516334E-05
542.5146,-4.516334E-05
542.6146,-4.514545E-05
542.7145,-4.513697E-05
542.8145,-4.514827E-05
542.9145,-4.515298E-05
543.0145,-4.513038E-05
543.1144,-4.513321E-05
543.2144,-4.511155E-05
543.3144,-4.510872E-05
543.4144,-4.511908E-05
543.5143,-4.513038E-05
543.6143,-4.508518E-05
543.7143,-4.510684E-05
543.8143,-4.509554E-05
543.9142,-4.508989E-05
544.0142,-4.508047E-05
544.1142,-4.50767E-05
544.2142,-4.509931E-05
544.3141,-4.508235E-05
544.4141,-4.509742E-05
544.5141,-4.50428E-05
544.6141,-4.505033E-05
544.7141,-4.507388E-05
544.814,-4.505693E-05
544.914,-4.505787E-05
545.014,-4.507199E-05
545.114,-4.504939E-05
545.2139,-4.506729E-05
545.3139,-4.506634E-05
545.4139,-4.500795E-05
545.5139,-4.506352E-05
545.6138,-4.507953E-05
545.7138,-4.502491E-05
545.8138,-4.502868E-05
545.9138,-4.505599E-05
546.0137,-4.503527E-05
546.1137,-4.500795E-05
546.2137,-4.502302E-05
546.3137,-4.502585E-05
546.4136,-4.499854E-05
546.5136,-4.501361E-05
546.6136,-4.497594E-05
546.7136,-4.497311E-05
546.8135,-4.500136E-05
546.9135,-4.498536E-05
547.0135,-4.495711E-05
547.1135,-4.497594E-05
547.2134,-4.496746E-05
547.3134,-4.498818E-05
547.4134,-4.496369E-05
547.5134,-4.496276E-05
547.6133,-4.494957E-05
547.7133,-4.494581E-05
547.8133,-4.495899E-05
547.9133,-4.494298E-05
548.0132,-4.495522E-05
548.1132,-4.494298E-05
548.2132,-4.492414E-05
548.3132,-4.493827E-05
548.4131,-4.493074E-05
548.5131,-4.490437E-05
548.6131,-4.492038E-05
548.7131,-4.491661E-05
548.813,-4.490719E-05
548.913,-4.490437E-05
549.013,-4.490154E-05
549.113,-4.489118E-05
549.213,-4.489212E-05
549.3129,-4.4894E-05
549.4129,-4.488553E-05
549.5129,-4.48827E-05
549.6129,-4.486764E-05
549.7128,-4.486575E-05
549.8128,-4.487988E-05
549.9128,-4.487046E-05
550.0128,-4.485634E-05
550.1127,-4.484692E-05
550.2127,-4.485445E-05
550.3127,-4.484786E-05
550.4127,-4.484127E-05
550.5126,-4.484692E-05
550.6126,-4.481208E-05
550.7126,-4.482526E-05
550.8126,-4.483186E-05
550.9125,-4.480831E-05
551.0125,-4.481114E-05
551.1125,-4.482338E-05
551.2125,-4.47923E-05
551.3124,-4.479795E-05
551.4124,-4.482808E-05
551.5124,-4.479513E-05
551.6124,-4.480643E-05
551.7123,-4.481114E-05
551.8123,-4.479418E-05
551.9123,-4.478476E-05
552.0123,-4.478288E-05
552.1122,-4.476876E-05
552.2122,-4.476311E-05
552.3122,-4.477629E-05
552.4122,-4.476405E-05
552.5121,-4.473768E-05
552.6121,-4.475651E-05
552.7121,-4.475463E-05
552.8121,-4.475275E-05
552.912,-4.474521E-05
553.012,-4.473768E-05
553.112,-4.471507E-05
553.212,-4.474427E-05
553.312,-4.473297E-05
553.4119,-4.471414E-05
553.5119,-4.470849E-05
553.6119,-4.472638E-05
553.7119,-4.469342E-05
553.8118,-4.470754E-05
553.9118,-4.469813E-05
554.0118,-4.468777E-05
554.1118,-4.469248E-05
554.2117,-4.472073E-05
554.3117,-4.471037E-05
554.4117,-4.469248E-05
554.5117,-4.468777E-05
554.6116,-4.4684E-05
554.7116,-4.467647E-05
554.8116,-4.467741E-05
554.9116,-4.466046E-05
555.0115,-4.466988E-05
555.1115,-4.466988E-05
555.2115,-4.463974E-05
555.3115,-4.463409E-05
555.4114,-4.463786E-05
555.5114,-4.463032E-05
555.6114,-4.463032E-05
555.7114,-4.461902E-05
555.8113,-4.458889E-05
555.9113,-4.461149E-05
556.0113,-4.46275E-05
556.1113,-4.461337E-05
556.2112,-4.459642E-05
556.3112,-4.460961E-05
556.4112,-4.459548E-05
556.5112,-4.45757E-05
556.6111,-4.460019E-05
556.7111,-4.45823E-05
556.8111,-4.45644E-05
556.9111,-4.457758E-05
557.011,-4.458512E-05
557.111,-4.455498E-05
557.211,-4.457287E-05
557.311,-4.455687E-05
557.4109,-4.455875E-05
557.5109,-4.457099E-05
557.6109,-4.453615E-05
557.7109,-4.453992E-05
557.8109,-4.456911E-05
557.9108,-4.458041E-05
558.0108,-4.454368E-05
558.1108,-4.457382E-05
558.2108,-4.456063E-05
558.3107,-4.454086E-05
558.4107,-4.457664E-05
558.5107,-4.455875E-05
558.6107,-4.453238E-05
558.7106,-4.455875E-05
558.8106,-4.451826E-05
558.9106,-4.452014E-05
559.0106,-4.452767E-05
559.1105,-4.451826E-05
559.2105,-4.450036E-05
559.3105,-4.449283E-05
559.4105,-4.447776E-05
559.5104,-4.449188E-05
559.6104,-4.452014E-05
559.7104,-4.449471E-05
559.8104,-4.446552E-05
559.9103,-4.448247E-05
560.0103,-4.449377E-05
560.1103,-4.448435E-05
560.2103,-4.447588E-05
560.3102,-4.447023E-05
560.4102,-4.444857E-05
560.5102,-4.446457E-05
560.6102,-4.44853E-05
560.7101,-4.44448E-05
560.8101,-4.443538E-05
560.9101,-4.444292E-05
561.0101,-4.44335E-05
561.11,-4.443256E-05
561.21,-4.444386E-05
561.31,-4.440054E-05
561.41,-4.441843E-05
561.5099,-4.442314E-05
561.6099,-4.441561E-05
561.7099,-4.440807E-05
561.8099,-4.441937E-05
561.9099,-4.439112E-05
562.0098,-4.439206E-05
562.1098,-4.442314E-05
562.2098,-4.440807E-05
562.3098,-4.43996E-05
562.4097,-4.440054E-05
562.5097,-4.439018E-05
562.6097,-4.439489E-05
562.7097,-4.440148E-05
562.8096,-4.438547E-05
562.9096,-4.436569E-05
563.0096,-4.43996E-05
563.1096,-4.437511E-05
563.2095,-4.437229E-05
563.3095,-4.437794E-05
563.4095,-4.436758E-05
563.5095,-4.436193E-05
563.6094,-4.437229E-05
563.7094,-4.436664E-05
563.8094,-4.434215E-05
563.9094,-4.435346E-05
564.0093,-4.434027E-05
564.1093,-4.433556E-05
564.2093,-4.436005E-05
564.3093,-4.434121E-05
564.4092,-4.428847E-05
564.5092,-4.43252E-05
564.6092,-4.432897E-05
564.7092,-4.43139E-05
564.8091,-4.430919E-05
564.9091,-4.430919E-05
565.0091,-4.429318E-05
565.1091,-4.430731E-05
565.209,-4.430731E-05
565.309,-4.429507E-05
565.409,-4.430354E-05
565.509,-4.428659E-05
565.6089,-4.427623E-05
565.7089,-4.429601E-05
565.8089,-4.427999E-05
565.9089,-4.424421E-05
566.0089,-4.427058E-05
566.1088,-4.425363E-05
566.2088,-4.426305E-05
566.3088,-4.425928E-05
566.4088,-4.424986E-05
566.5087,-4.422161E-05
566.6087,-4.424139E-05
566.7087,-4.422443E-05
566.8087,-4.424045E-05
566.9086,-4.424892E-05
567.0086,-4.421878E-05
567.1086,-4.420937E-05
567.2086,-4.421785E-05
567.3085,-4.422726E-05
567.4085,-4.421125E-05
567.5085,-4.423103E-05
567.6085,-4.420937E-05
567.7084,-4.419054E-05
567.8084,-4.421408E-05
567.9084,-4.420748E-05
568.0084,-4.41943E-05
568.1083,-4.421125E-05
568.2083,-4.418771E-05
568.3083,-4.418959E-05
568.4083,-4.419712E-05
568.5082,-4.419712E-05
568.6082,-4.418112E-05
568.7082,-4.419336E-05
568.8082,-4.420089E-05
568.9081,-4.417453E-05
569.0081,-4.418394E-05
569.1081,-4.417641E-05
569.2081,-4.416511E-05
569.308,-4.417453E-05
569.408,-4.416793E-05
569.508,-4.416322E-05
569.608,-4.419147E-05
569.7079,-4.415192E-05
569.8079,-4.414627E-05
569.9079,-4.416605E-05
570.0079,-4.41604E-05
570.1078,-4.413027E-05
570.2078,-4.411331E-05
570.3078,-4.416699E-05
570.4078,-4.413874E-05
570.5078,-4.41152E-05
570.6077,-4.413497E-05
570.7077,-4.415569E-05
570.8077,-4.413121E-05
570.9077,-4.41378E-05
571.0076,-4.410578E-05
571.1076,-4.410012E-05
571.2076,-4.412085E-05
571.3076,-4.409165E-05
571.4075,-4.410578E-05
571.5075,-4.411708E-05
571.6075,-4.407282E-05
571.7075,-4.409918E-05
571.8074,-4.408694E-05
571.9074,-4.404927E-05
572.0074,-4.405775E-05
572.1074,-4.408506E-05
572.2073,-4.406528E-05
572.3073,-4.40408E-05
572.4073,-4.404174E-05
572.5073,-4.406528E-05
572.6072,-4.40521E-05
572.7072,-4.406058E-05
572.8072,-4.404551E-05
572.9072,-4.404551E-05
573.0071,-4.404268E-05
573.1071,-4.402949E-05
573.2071,-4.401537E-05
573.3071,-4.402291E-05
573.407,-4.402008E-05
573.507,-4.400313E-05
573.607,-4.400878E-05
573.707,-4.399089E-05
573.8069,-4.399277E-05
573.9069,-4.400784E-05
574.0069,-4.398241E-05
574.1069,-4.397205E-05
574.2068,-4.398147E-05
574.3068,-4.398618E-05
574.4068,-4.39777E-05
574.5068,-4.39664E-05
574.6068,-4.395792E-05
574.7067,-4.395604E-05
574.8067,-4.395322E-05
574.9067,-4.396358E-05
575.0067,-4.395698E-05
575.1066,-4.394285E-05
575.2066,-4.393909E-05
575.3066,-4.392873E-05
575.4066,-4.393909E-05
575.5065,-4.392591E-05
575.6065,-4.393062E-05
575.7065,-4.393156E-05
575.8065,-4.394003E-05
575.9064,-4.393438E-05
576.0064,-4.391838E-05
576.1064,-4.391649E-05
576.2064,-4.390425E-05
576.3063,-4.390048E-05
576.4063,-4.389766E-05
576.5063,-4.388353E-05
576.6063,-4.388824E-05
576.7062,-4.389295E-05
576.8062,-4.386469E-05
576.9062,-4.388541E-05
577.0062,-4.392685E-05
577.1061,-4.385622E-05
577.2061,-4.386093E-05
577.3061,-4.388447E-05
577.4061,-4.387317E-05
577.506,-4.389389E-05
577.606,-4.387882E-05
577.706,-4.386187E-05
577.806,-4.386093E-05
577.9059,-4.389201E-05
578.0059,-4.385716E-05
578.1059,-4.385999E-05
578.2059,-4.38694E-05
578.3058,-4.384303E-05
578.4058,-4.383739E-05
578.5058,-4.38468E-05
578.6058,-4.383362E-05
578.7057,-4.382985E-05
578.8057,-4.385057E-05
578.9057,-4.380442E-05
579.0057,-4.382232E-05
579.1057,-4.382138E-05
579.2056,-4.38129E-05
579.3056,-4.380913E-05
579.4056,-4.380819E-05
579.5056,-4.378935E-05
579.6055,-4.379972E-05
579.7055,-4.383644E-05
579.8055,-4.380631E-05
579.9055,-4.378182E-05
580.0054,-4.380631E-05
580.1054,-4.38129E-05
580.2054,-4.37903E-05
580.3054,-4.380254E-05
580.4053,-4.380631E-05
580.5053,-4.377711E-05
580.6053,-4.377617E-05
580.7053,-4.377523E-05
580.8052,-4.374509E-05
580.9052,-4.377617E-05
581.0052,-4.375263E-05
581.1052,-4.375074E-05
581.2051,-4.374039E-05
581.3051,-4.373003E-05
581.4051,-4.373756E-05
581.5051,-4.374981E-05
581.605,-4.374321E-05
581.705,-4.373473E-05
581.805,-4.372908E-05
581.905,-4.373097E-05
582.0049,-4.373379E-05
582.1049,-4.372908E-05
582.2049,-4.371778E-05
582.3049,-4.370931E-05
582.4048,-4.370931E-05
582.5048,-4.369895E-05
582.6048,-4.371025E-05
582.7048,-4.371684E-05
582.8047,-4.371025E-05
582.9047,-4.367823E-05
583.0047,-4.369801E-05
583.1047,-4.369895E-05
583.2047,-4.367164E-05
583.3046,-4.367823E-05
583.4046,-4.368765E-05
583.5046,-4.366034E-05
583.6046,-4.367447E-05
583.7045,-4.369801E-05
583.8045,-4.364715E-05
583.9045,-4.363679E-05
584.0045,-4.369142E-05
584.1044,-4.368577E-05
584.2044,-4.364715E-05
584.3044,-4.364998E-05
584.4044,-4.366882E-05
584.5043,-4.364433E-05
584.6043,-4.364245E-05
584.7043,-4.36189E-05
584.8043,-4.363021E-05
584.9042,-4.36415E-05
585.0042,-4.361231E-05
585.1042,-4.360384E-05
585.2042,-4.361325E-05
585.3041,-4.360666E-05
585.4041,-4.359253E-05
585.5041,-4.358124E-05
585.6041,-4.358783E-05
585.704,-4.357276E-05
585.804,-4.358877E-05
585.904,-4.356899E-05
586.004,-4.355958E-05
586.1039,-4.358971E-05
586.2039,-4.356711E-05
586.3039,-4.354356E-05
586.4039,-4.356711E-05
586.5038,-4.35624E-05
586.6038,-4.356334E-05
586.7038,-4.355769E-05
586.8038,-4.355863E-05
586.9037,-4.353132E-05
587.0037,-4.353792E-05
587.1037,-4.353792E-05
587.2037,-4.35398E-05
587.3036,-4.352002E-05
587.4036,-4.353227E-05
587.5036,-4.351155E-05
587.6036,-4.35106E-05
587.7036,-4.353227E-05
587.8035,-4.350684E-05
587.9035,-4.350401E-05
588.0035,-4.352662E-05
588.1035,-4.350307E-05
588.2034,-4.349271E-05
588.3034,-4.350119E-05
588.4034,-4.348047E-05
588.5034,-4.347388E-05
588.6033,-4.349365E-05
588.7033,-4.347858E-05
588.8033,-4.347764E-05
588.9033,-4.347858E-05
589.0032,-4.345033E-05
589.1032,-4.345033E-05
589.2032,-4.345033E-05
589.3032,-4.345881E-05
589.4031,-4.343526E-05
589.5031,-4.343526E-05
589.6031,-4.342302E-05
589.7031,-4.342302E-05
589.803,-4.342208E-05
589.903,-4.345504E-05
590.003,-4.341643E-05
590.103,-4.341549E-05
590.2029,-4.340984E-05
590.3029,-4.338253E-05
590.4029,-4.339948E-05
590.5029,-4.341832E-05
590.6028,-4.340419E-05
590.7028,-4.33863E-05
590.8028,-4.339854E-05
590.9028,-4.339571E-05
591.0027,-4.339759E-05
591.1027,-4.340795E-05
591.2027,-4.338535E-05
591.3027,-4.336463E-05
591.4026,-4.336557E-05
591.5026,-4.337217E-05
591.6026,-4.336369E-05
591.7026,-4.337782E-05
591.8026,-4.337688E-05
591.9025,-4.333262E-05
592.0025,-4.336087E-05
592.1025,-4.335427E-05
592.2025,-4.335145E-05
592.3024,-4.33458E-05
592.4024,-4.333921E-05
592.5024,-4.333827E-05
592.6024,-4.334957E-05
592.7023,-4.33458E-05
592.8023,-4.334109E-05
592.9023,-4.332131E-05
593.0023,-4.331849E-05
593.1022,-4.33119E-05
593.2022,-4.332508E-05
593.3022,-4.331096E-05
593.4022,-4.329212E-05
593.5021,-4.329777E-05
593.6021,-4.328365E-05
593.7021,-4.328082E-05
593.8021,-4.328176E-05
593.902,-4.327423E-05
594.002,-4.326481E-05
594.102,-4.327893E-05
594.202,-4.325163E-05
594.3019,-4.326764E-05
594.4019,-4.327893E-05
594.5019,-4.324786E-05
594.6019,-4.323279E-05
594.7018,-4.324974E-05
594.8018,-4.325163E-05
594.9018,-4.324598E-05
595.0018,-4.323844E-05
595.1017,-4.322243E-05
595.2017,-4.321207E-05
595.3017,-4.324315E-05
595.4017,-4.322808E-05
595.5016,-4.321019E-05
595.6016,-4.319889E-05
595.7016,-4.319607E-05
595.8016,-4.319889E-05
595.9016,-4.321113E-05
596.0015,-4.318665E-05
596.1015,-4.316122E-05
596.2015,-4.319983E-05
596.3015,-4.322055E-05
596.4014,-4.317629E-05
596.5014,-4.31857E-05
596.6014,-4.318853E-05
596.7014,-4.316311E-05
596.8013,-4.317535E-05
596.9013,-4.317064E-05
597.0013,-4.314992E-05
597.1013,-4.315557E-05
597.2012,-4.313485E-05
597.3012,-4.314333E-05
597.4012,-4.315181E-05
597.5012,-4.313673E-05
597.6011,-4.312073E-05
597.7011,-4.312355E-05
597.8011,-4.31066E-05
597.9011,-4.311602E-05
598.001,-4.312544E-05
598.101,-4.310566E-05
598.201,-4.309342E-05
598.301,-4.311225E-05
598.4009,-4.310001E-05
598.5009,-4.307929E-05
598.6009,-4.308494E-05
598.7009,-4.306516E-05
598.8008,-4.307081E-05
598.9008,-4.308494E-05
599.0008,-4.307741E-05
599.1008,-4.30614E-05
599.2007,-4.307741E-05
599.3007,-4.306234E-05
599.4007,-4.302843E-05
599.5007,-4.304633E-05
599.6006,-4.303315E-05
599.7006,-4.30614E-05
599.8006,-4.30388E-05
599.9006,-4.305104E-05
600.0005,-4.304445E-05
