EXPID. 1129
[电化学]: i-t : @ 0(V) X 600(sec)
起始电位 (V),0
静置时间 (秒),0
运行时间 (秒),600
记录间隔,0.1
电解液 信息:
HNO3,0.4
0.1,-0.01005814
0.2,-0.01005814
0.3,-0.01005814
0.4,-0.01005814
0.5,-0.01005814
0.6,-0.01005814
0.7,-0.01005814
0.8000001,-0.01005814
0.9000001,-0.01005814
1,-0.01005814
1.1,-0.01005814
1.2,-0.01005814
1.3,-0.01005814
1.4,-0.01005814
1.5,-0.01005814
1.6,-0.01005814
1.7,0.0004106195
1.8,0.0100315
1.9,0.0100315
2,0.009578419
2.1,0.009149638
2.2,0.009970189
2.3,0.0100315
2.4,0.0100315
2.5,0.01002518
2.6,0.008351785
2.7,0.004993565
2.799999,0.001353707
2.899999,-0.001078034
2.999999,-0.002487303
3.099999,-0.003394645
3.199999,-0.004002775
3.299999,-0.004428901
3.399999,-0.004730443
3.499999,-0.004933988
3.599999,-0.005072418
3.699999,-0.005153019
3.799999,-0.005204007
3.899998,-0.005220445
3.999998,-0.005205662
4.099998,-0.005190303
4.199998,-0.005166137
4.299998,-0.005123897
4.399998,-0.005089163
4.499998,-0.005050796
4.599998,-0.005001755
4.699998,-0.004956528
4.799998,-0.004914896
4.899998,-0.004862703
4.999998,-0.004819476
5.099998,-0.004777215
5.199997,-0.004720434
5.299997,-0.004676799
5.399997,-0.004632352
5.499997,-0.004580059
5.599997,-0.004536746
5.699997,-0.004486371
5.799997,-0.004433142
5.899997,-0.004387788
5.999997,-0.00434135
6.099997,-0.004289165
6.199996,-0.004241417
6.299996,-0.004193634
6.399996,-0.00414492
6.499996,-0.004101135
6.599996,-0.004053605
6.699996,-0.004007357
6.799996,-0.003962204
6.899996,-0.003916244
6.999996,-0.003871923
7.099996,-0.003831092
7.199996,-0.003787432
7.299995,-0.003746575
7.399995,-0.003707227
7.499995,-0.003669739
7.599995,-0.003631704
7.699995,-0.00359364
7.799995,-0.003558033
7.899995,-0.003521854
7.999995,-0.003486281
8.099995,-0.003452043
8.199995,-0.00342007
8.299995,-0.003387084
8.399996,-0.003355331
8.499996,-0.003324452
8.599997,-0.003294044
8.699997,-0.003264209
8.799997,-0.003235542
8.899998,-0.003206533
8.999998,-0.003178498
9.099998,-0.003151583
9.199999,-0.003124187
9.299999,-0.003097443
9.4,-0.003071103
9.5,-0.00304611
9.6,-0.003020818
9.700001,-0.002996368
9.800001,-0.002971651
9.900002,-0.002947523
10,-0.002924865
10.1,-0.002901306
10.2,-0.002878584
10.3,-0.002856536
10.4,-0.002833643
10.5,-0.00281179
10.6,-0.002790183
10.7,-0.002768603
10.8,-0.002747389
10.90001,-0.002726951
11.00001,-0.002706101
11.10001,-0.002685099
11.20001,-0.002665821
11.30001,-0.002645457
11.40001,-0.002625926
11.50001,-0.002606875
11.60001,-0.002587301
11.70001,-0.002568524
11.80001,-0.002549985
11.90001,-0.002531037
12.00001,-0.002512803
12.10001,-0.002495145
12.20001,-0.002476149
12.30001,-0.002459497
12.40001,-0.002442377
12.50001,-0.002423654
12.60001,-0.002407256
12.70001,-0.002390276
12.80001,-0.002372554
12.90001,-0.002356319
13.00001,-0.002339853
13.10001,-0.002323094
13.20001,-0.002307159
13.30001,-0.002291245
13.40001,-0.002275031
13.50002,-0.002260107
13.60002,-0.002243973
13.70002,-0.002227945
13.80002,-0.00221309
13.90002,-0.002197579
14.00002,-0.002182366
14.10002,-0.002167657
14.20002,-0.002152542
14.30002,-0.00213794
14.40002,-0.002123332
14.50002,-0.002109251
14.60002,-0.00209449
14.70002,-0.002080995
14.80002,-0.00206657
14.90002,-0.002052481
15.00002,-0.002038875
15.10002,-0.002024807
15.20002,-0.002011944
15.30002,-0.001998075
15.40002,-0.0019853
15.50002,-0.001971801
15.60002,-0.001958358
15.70002,-0.001946142
15.80002,-0.001933298
15.90002,-0.001919972
16.00002,-0.001907309
16.10003,-0.001894759
16.20003,-0.001881756
16.30003,-0.001869501
16.40003,-0.001857248
16.50003,-0.001844756
16.60003,-0.001832954
16.70003,-0.001820589
16.80003,-0.001808592
16.90003,-0.00179673
17.00003,-0.001784654
17.10003,-0.001772986
17.20003,-0.001761658
17.30003,-0.001750118
17.40003,-0.001738733
17.50003,-0.001727403
17.60003,-0.001716103
17.70003,-0.001704658
17.80003,-0.001694383
17.90003,-0.001683426
18.00003,-0.001672398
18.10003,-0.001661509
18.20003,-0.001650739
18.30003,-0.00164035
18.40003,-0.001629558
18.50003,-0.00161952
18.60003,-0.00160921
18.70004,-0.001598737
18.80004,-0.001588896
18.90004,-0.001579042
19.00004,-0.00156871
19.10004,-0.001558893
19.20004,-0.001549248
19.30004,-0.001539064
19.40004,-0.001529451
19.50004,-0.001519669
19.60004,-0.001510053
19.70004,-0.001500591
19.80004,-0.001491156
19.90004,-0.00148146
20.00004,-0.001472058
20.10004,-0.001463022
20.20004,-0.001453469
20.30004,-0.001444323
20.40004,-0.001435764
20.50004,-0.001426455
20.60004,-0.001417772
20.70004,-0.001408808
20.80004,-0.001399997
20.90004,-0.001391204
21.00004,-0.001382491
21.10004,-0.001373952
21.20004,-0.001365514
21.30005,-0.00135705
21.40005,-0.001348711
21.50005,-0.001340304
21.60005,-0.001332197
21.70005,-0.001323882
21.80005,-0.001315518
21.90005,-0.001307584
22.00005,-0.001299752
22.10005,-0.001291538
22.20005,-0.001283605
22.30005,-0.00127597
22.40005,-0.001268103
22.50005,-0.001260599
22.60005,-0.001253425
22.70005,-0.001245346
22.80005,-0.001237811
22.90005,-0.001230566
23.00005,-0.001223103
23.10005,-0.001215704
23.20005,-0.001208587
23.30005,-0.001200846
23.40005,-0.001193808
23.50005,-0.001186668
23.60005,-0.001179178
23.70005,-0.001172312
23.80005,-0.001165398
23.90005,-0.001158287
24.00006,-0.001151554
24.10006,-0.001144683
24.20006,-0.001137859
24.30006,-0.001131219
24.40006,-0.001124419
24.50006,-0.00111783
24.60006,-0.001111503
24.70006,-0.00110469
24.80006,-0.001098318
24.90006,-0.001091811
25.00006,-0.00108542
25.10006,-0.001079186
25.20006,-0.001072975
25.30006,-0.001066735
25.40006,-0.001060681
25.50006,-0.001054578
25.60006,-0.001048395
25.70006,-0.001042533
25.80006,-0.001036482
25.90006,-0.001030387
26.00006,-0.001024513
26.10006,-0.001018587
26.20006,-0.001012904
26.30006,-0.001007016
26.40006,-0.001001237
26.50006,-0.0009955728
26.60007,-0.0009899723
26.70007,-0.0009844868
26.80007,-0.000978665
26.90007,-0.0009733969
27.00007,-0.0009677804
27.10007,-0.0009622609
27.20007,-0.0009570983
27.30007,-0.0009516382
27.40007,-0.0009463052
27.50007,-0.0009411209
27.60007,-0.0009357248
27.70007,-0.0009306432
27.80007,-0.0009253704
27.90007,-0.0009202776
28.00007,-0.0009154135
28.10007,-0.0009104036
28.20007,-0.0009052071
28.30007,-0.0009003298
28.40007,-0.0008954648
28.50007,-0.000890469
28.60007,-0.0008858469
28.70007,-0.0008810611
28.80007,-0.000876083
28.90007,-0.0008714657
29.00007,-0.0008666639
29.10007,-0.0008619637
29.20008,-0.0008574838
29.30008,-0.0008528515
29.40008,-0.0008483745
29.50008,-0.0008440792
29.60008,-0.0008397012
29.70008,-0.0008351384
29.80008,-0.0008306587
29.90008,-0.0008263936
30.00008,-0.0008220606
30.10008,-0.0008176892
30.20008,-0.0008134786
30.30008,-0.0008093152
30.40008,-0.000805116
30.50008,-0.0008015083
30.60008,-0.000797375
30.70008,-0.000792704
30.80008,-0.000788647
30.90008,-0.0007848547
31.00008,-0.0007805764
31.10008,-0.0007765298
31.20008,-0.0007726885
31.30008,-0.0007685844
31.40008,-0.0007646527
31.50008,-0.0007611165
31.60008,-0.0007569107
31.70008,-0.0007531315
31.80009,-0.000749715
31.90009,-0.000745673
32.00008,-0.0007422536
32.10008,-0.0007386365
32.20008,-0.0007347763
32.30008,-0.0007310752
32.40008,-0.0007274477
32.50008,-0.0007238588
32.60007,-0.0007203753
32.70007,-0.000716792
32.80007,-0.0007130628
32.90007,-0.000709746
33.00007,-0.00070627
33.10007,-0.0007027753
33.20007,-0.0006993926
33.30006,-0.0006961578
33.40006,-0.000692873
33.50006,-0.0006896335
33.60006,-0.0006863694
33.70006,-0.0006830036
33.80006,-0.0006796219
33.90005,-0.0006764511
34.00005,-0.000673187
34.10005,-0.0006700765
34.20005,-0.0006669368
34.30005,-0.0006636915
34.40005,-0.0006604953
34.50005,-0.0006575063
34.60004,-0.000654457
34.70004,-0.0006512842
34.80004,-0.0006484751
34.90004,-0.0006455161
35.00004,-0.0006422869
35.10004,-0.000639361
35.20004,-0.000636404
35.30003,-0.000633445
35.40003,-0.0006304908
35.50003,-0.0006275677
35.60003,-0.0006246907
35.70003,-0.0006217911
35.80003,-0.0006191373
35.90002,-0.0006162603
36.00002,-0.0006133955
36.10002,-0.0006107013
36.20002,-0.0006079561
36.30002,-0.0006052119
36.40002,-0.0006026109
36.50002,-0.0005997885
36.60001,-0.0005971827
36.70001,-0.0005946335
36.80001,-0.0005919863
36.90001,-0.0005893522
37.00001,-0.0005868566
37.10001,-0.000584265
37.2,-0.0005816601
37.3,-0.0005792456
37.4,-0.0005767585
37.5,-0.0005741762
37.6,-0.0005717795
37.7,-0.0005694723
37.8,-0.0005668307
37.89999,-0.0005645301
37.99999,-0.0005620467
38.09999,-0.0005596491
38.19999,-0.0005574888
38.29999,-0.0005551589
38.39999,-0.0005527264
38.49998,-0.0005503485
38.59998,-0.0005480846
38.69998,-0.0005458753
38.79998,-0.0005435511
38.89998,-0.0005413484
38.99998,-0.0005392191
39.09998,-0.000536943
39.19997,-0.0005347704
39.29997,-0.0005326007
39.39997,-0.0005302473
39.49997,-0.0005280945
39.59997,-0.0005261197
39.69997,-0.0005239236
39.79996,-0.0005217519
39.89996,-0.0005197875
39.99996,-0.0005175612
40.09996,-0.0005155873
40.19996,-0.0005134703
40.29996,-0.0005114786
40.39996,-0.0005094322
40.49995,-0.0005074008
40.59995,-0.0005053507
40.69995,-0.0005034201
40.79995,-0.0005014162
40.89995,-0.0004994498
40.99995,-0.0004975043
41.09995,-0.0004955973
41.19994,-0.0004936187
41.29994,-0.0004917521
41.39994,-0.0004898169
41.49994,-0.0004879108
41.59994,-0.0004861206
41.69994,-0.0004842974
41.79993,-0.0004824064
41.89993,-0.0004805079
41.99993,-0.0004785453
42.09993,-0.0004768521
42.19993,-0.0004751381
42.29993,-0.000473313
42.39993,-0.000471504
42.49992,-0.0004698154
42.59992,-0.0004680064
42.69992,-0.0004662623
42.79992,-0.0004645436
42.89992,-0.000462825
42.99992,-0.0004611101
43.09991,-0.0004594507
43.19991,-0.0004578074
43.29991,-0.0004560954
43.39991,-0.0004544473
43.49991,-0.0004527984
43.59991,-0.0004511861
43.69991,-0.0004495946
43.7999,-0.0004479786
43.8999,-0.0004463211
43.9999,-0.0004447211
44.0999,-0.0004431465
44.1999,-0.000441669
44.2999,-0.0004401989
44.39989,-0.0004385481
44.49989,-0.0004369839
44.59989,-0.0004355618
44.69989,-0.0004339892
44.79989,-0.0004326161
44.89989,-0.0004310001
44.99989,-0.0004293945
45.09988,-0.0004280421
45.19988,-0.0004265165
45.29988,-0.0004249099
45.39988,-0.0004235021
45.49988,-0.0004220923
45.59988,-0.0004206787
45.69987,-0.0004192784
45.79987,-0.0004178375
45.89987,-0.0004162356
45.99987,-0.0004149652
46.09987,-0.0004136402
46.19987,-0.0004120892
46.29987,-0.0004109742
46.39986,-0.0004094703
46.49986,-0.0004080464
46.59986,-0.0004067176
46.69986,-0.0004053568
46.79986,-0.0004039922
46.89986,-0.0004026493
46.99986,-0.0004012273
47.09985,-0.0003998796
47.19985,-0.0003987232
47.29985,-0.0003973106
47.39985,-0.0003959338
47.49985,-0.0003946851
47.59985,-0.0003933949
47.69984,-0.0003922573
47.79984,-0.000390855
47.89984,-0.0003895507
47.99984,-0.0003883924
48.09984,-0.0003871757
48.19984,-0.000385877
48.29984,-0.0003846744
48.39983,-0.0003835481
48.49983,-0.0003824896
48.59983,-0.0003814189
48.69983,-0.0003800101
48.79983,-0.0003789176
48.89983,-0.0003777
48.99982,-0.0003764644
49.09982,-0.0003753768
49.19982,-0.0003742504
49.29982,-0.0003730271
49.39982,-0.0003718801
49.49982,-0.0003707302
49.59982,-0.0003695145
49.69981,-0.0003683335
49.79981,-0.0003675039
49.89981,-0.000366242
49.99981,-0.0003652371
50.09981,-0.0003640393
50.19981,-0.0003628988
50.2998,-0.0003617216
50.3998,-0.0003606669
50.4998,-0.0003595142
50.5998,-0.0003585367
50.6998,-0.0003574095
50.7998,-0.0003563547
50.8998,-0.0003553894
50.99979,-0.0003543837
51.09979,-0.0003531283
51.19979,-0.0003521725
51.29979,-0.0003511451
51.39979,-0.000349998
51.49979,-0.0003489922
51.59978,-0.0003479949
51.69978,-0.000346911
51.79978,-0.000345974
51.89978,-0.0003448872
51.99978,-0.0003438786
52.09978,-0.0003430499
52.19978,-0.0003420357
52.29977,-0.0003409932
52.39977,-0.0003400213
52.49977,-0.0003391841
52.59977,-0.0003381774
52.69977,-0.0003371603
52.79977,-0.0003362299
52.89977,-0.0003353164
52.99976,-0.0003342589
53.09976,-0.0003334895
53.19976,-0.000332576
53.29976,-0.0003315241
53.39976,-0.0003306821
53.49976,-0.0003298167
53.59975,-0.0003287092
53.69975,-0.0003277524
53.79975,-0.0003269397
53.89975,-0.000325886
53.99975,-0.0003251081
54.09975,-0.0003242049
54.19975,-0.0003232086
54.29974,-0.0003223676
54.39974,-0.0003214899
54.49974,-0.0003205039
54.59974,-0.0003196583
54.69974,-0.0003187871
54.79974,-0.0003178548
54.89973,-0.0003170845
54.99973,-0.0003162285
55.09973,-0.0003152397
55.19973,-0.0003145107
55.29973,-0.0003136425
55.39973,-0.000312794
55.49973,-0.0003121046
55.59972,-0.000311258
55.69972,-0.0003102805
55.79972,-0.0003094716
55.89972,-0.00030864
55.99972,-0.0003077717
56.09972,-0.0003070777
56.19971,-0.0003062574
56.29971,-0.0003054118
56.39971,-0.0003048175
56.49971,-0.0003039699
56.59971,-0.00030308
56.69971,-0.0003023238
56.79971,-0.0003015017
56.8997,-0.0003006334
56.9997,-0.0002998998
57.0997,-0.0002991266
57.1997,-0.0002983262
57.2997,-0.0002976114
57.3997,-0.0002969955
57.49969,-0.0002960509
57.59969,-0.0002953079
57.69969,-0.0002945771
57.79969,-0.0002937456
57.89969,-0.0002929809
57.99969,-0.0002923085
58.09969,-0.0002915834
58.19968,-0.0002908017
58.29968,-0.0002900916
58.39968,-0.0002893618
58.49968,-0.0002885425
58.59968,-0.0002878645
58.69968,-0.0002871713
58.79967,-0.0002864048
58.89967,-0.0002857418
58.99967,-0.0002850232
59.09967,-0.0002843208
59.19967,-0.0002836333
59.29967,-0.0002829542
59.39967,-0.0002822395
59.49966,-0.0002816566
59.59966,-0.0002810162
59.69966,-0.0002801621
59.79966,-0.0002795518
59.89966,-0.0002788512
59.99966,-0.0002781929
60.09966,-0.0002776975
60.19965,-0.0002769705
60.29965,-0.0002762576
60.39965,-0.0002756671
60.49965,-0.0002749778
60.59965,-0.0002742179
60.69965,-0.0002736622
60.79964,-0.0002729748
60.89964,-0.0002722477
60.99964,-0.0002717731
61.09964,-0.0002711186
61.19964,-0.0002704895
61.29964,-0.0002698152
61.39964,-0.0002691353
61.49963,-0.0002684883
61.59963,-0.0002678743
61.69963,-0.0002672349
61.79963,-0.0002666162
61.89963,-0.0002659871
61.99963,-0.0002653731
62.09962,-0.0002647892
62.19962,-0.00026421
62.29962,-0.00026358
62.39962,-0.0002629802
62.49962,-0.0002623756
62.59962,-0.0002617681
62.69962,-0.0002611607
62.79961,-0.0002605571
62.89961,-0.000260106
62.99961,-0.0002594063
63.09961,-0.0002587056
63.19961,-0.0002581651
63.29961,-0.0002575718
63.3996,-0.000256987
63.4996,-0.0002563739
63.5996,-0.0002558437
63.6996,-0.0002552391
63.7996,-0.0002547466
63.8996,-0.0002541872
63.9996,-0.000253496
64.09959,-0.0002529573
64.19959,-0.0002524403
64.29959,-0.0002518338
64.39959,-0.0002512942
64.49959,-0.0002507207
64.59959,-0.0002500681
64.69958,-0.0002496518
64.79958,-0.0002491433
64.89958,-0.0002484897
64.99958,-0.0002479416
65.09958,-0.0002474783
65.19958,-0.0002468492
65.29958,-0.0002463162
65.39957,-0.000245786
65.49957,-0.0002451767
65.59957,-0.0002446428
65.69957,-0.0002441314
65.79957,-0.0002436022
65.89957,-0.0002430531
65.99957,-0.0002425389
66.09956,-0.0002420794
66.19956,-0.0002415708
66.29956,-0.0002409851
66.39956,-0.0002405171
66.49956,-0.0002400867
66.59956,-0.0002395744
66.69955,-0.0002390592
66.79955,-0.0002387984
66.89955,-0.0002382268
66.99955,-0.000237625
67.09955,-0.0002371946
67.19955,-0.000236785
67.29955,-0.0002361964
67.39954,-0.0002357123
67.49954,-0.0002352556
67.59954,-0.0002347009
67.69954,-0.000234166
67.79954,-0.0002337723
67.89954,-0.0002332525
67.99953,-0.0002327299
68.09953,-0.0002322948
68.19953,-0.0002318126
68.29953,-0.0002312918
68.39953,-0.0002308304
68.49953,-0.0002303953
68.59953,-0.0002298708
68.69952,-0.0002294159
68.79952,-0.000228978
68.89952,-0.0002284836
68.99952,-0.0002280721
69.09952,-0.0002276003
69.19952,-0.0002271294
69.29951,-0.0002266717
69.39951,-0.0002262074
69.49951,-0.0002257281
69.59951,-0.0002253109
69.69951,-0.000224824
69.79951,-0.0002244728
69.89951,-0.0002241196
69.9995,-0.0002236619
70.0995,-0.0002231882
70.1995,-0.0002227682
70.2995,-0.0002223087
70.3995,-0.0002218105
70.4995,-0.0002213801
70.59949,-0.0002209036
70.69949,-0.0002204412
70.79949,-0.0002201276
70.89949,-0.0002196906
70.99949,-0.0002191435
71.09949,-0.0002187875
71.19949,-0.0002184372
71.29948,-0.0002179183
71.39948,-0.0002175586
71.49948,-0.0002171028
71.59948,-0.0002166743
71.69948,-0.0002162364
71.79948,-0.0002158512
71.89948,-0.0002154152
71.99947,-0.0002149763
72.09947,-0.0002146307
72.19947,-0.0002142305
72.29947,-0.0002138651
72.39947,-0.0002134489
72.49947,-0.0002129733
72.59946,-0.0002125702
72.69946,-0.0002121408
72.79946,-0.0002117029
72.89946,-0.0002112857
72.99946,-0.0002109128
73.09946,-0.0002105012
73.19946,-0.0002100982
73.29945,-0.0002096621
73.39945,-0.0002092243
73.49945,-0.0002088786
73.59945,-0.0002084718
73.69945,-0.0002080763
73.79945,-0.0002076873
73.89944,-0.0002072975
73.99944,-0.0002069001
74.09944,-0.000206529
74.19944,-0.0002061495
74.29944,-0.0002057436
74.39944,-0.0002053038
74.49944,-0.000204961
74.59943,-0.0002045655
74.69943,-0.0002041822
74.79943,-0.0002038479
74.89943,-0.0002034307
74.99943,-0.0002030719
75.09943,-0.0002027206
75.19942,-0.0002023393
75.29942,-0.000201971
75.39942,-0.0002016
75.49942,-0.0002012346
75.59942,-0.0002008683
75.69942,-0.00020055
75.79942,-0.0002001987
75.89941,-0.0001998192
75.99941,-0.0001994802
76.09941,-0.0001991195
76.19941,-0.0001987051
76.29941,-0.0001985158
76.39941,-0.0001982634
76.4994,-0.00019777
76.5994,-0.000197381
76.6994,-0.0001970392
76.7994,-0.0001966032
76.8994,-0.0001964016
76.9994,-0.0001960052
77.0994,-0.0001956153
77.19939,-0.0001953337
77.29939,-0.0001950135
77.39939,-0.0001945596
77.49939,-0.0001942017
77.59939,-0.0001939032
77.69939,-0.000193552
77.79939,-0.0001932807
77.89938,-0.0001929719
77.99938,-0.0001925829
78.09938,-0.0001922608
78.19938,-0.0001918766
78.29938,-0.0001915828
78.39938,-0.0001912965
78.49937,-0.0001909518
78.59937,-0.0001906156
78.69937,-0.0001903011
78.79937,-0.0001899366
78.89937,-0.0001895524
78.99937,-0.0001892803
79.09937,-0.0001889572
79.19936,-0.0001886333
79.29936,-0.0001883696
79.39936,-0.0001880645
79.49936,-0.0001877471
79.59936,-0.0001874288
79.69936,-0.0001871472
79.79935,-0.0001868544
79.89935,-0.000186537
79.99935,-0.0001862573
80.09935,-0.000185923
80.19935,-0.0001855661
80.29935,-0.0001852026
80.39935,-0.00018497
80.49934,-0.000184645
80.59934,-0.0001843023
80.69934,-0.0001840056
80.79934,-0.0001836459
80.89934,-0.0001834067
80.99934,-0.0001831204
81.09933,-0.0001827729
81.19933,-0.000182496
81.29933,-0.0001822163
81.39933,-0.0001819037
81.49933,-0.0001816438
81.59933,-0.0001813415
81.69933,-0.0001809488
81.79932,-0.0001807331
81.89932,-0.0001804402
81.99932,-0.0001800899
82.09932,-0.0001799289
82.19932,-0.0001796209
82.29932,-0.0001792819
82.39931,-0.0001789975
82.49931,-0.0001786585
82.59931,-0.0001783835
82.69931,-0.0001781094
82.79931,-0.0001778411
82.89931,-0.0001774954
82.99931,-0.000177227
83.0993,-0.000176954
83.1993,-0.0001766921
83.2993,-0.0001764398
83.3993,-0.0001762994
83.4993,-0.000176047
83.5993,-0.0001756854
83.6993,-0.000175337
83.79929,-0.0001751298
83.89929,-0.0001747983
83.99929,-0.0001745327
84.09929,-0.000174237
84.19929,-0.0001739592
84.29929,-0.0001737078
84.39928,-0.0001734507
84.49928,-0.0001731588
84.59928,-0.0001728593
84.69928,-0.0001726342
84.79928,-0.0001723517
84.89928,-0.0001720965
84.99928,-0.0001718083
85.09927,-0.000171506
85.19927,-0.0001712904
85.29927,-0.0001710389
85.39927,-0.0001707347
85.49927,-0.0001704456
85.59927,-0.0001701499
85.69926,-0.0001698721
85.79926,-0.0001696348
85.89926,-0.0001693617
85.99926,-0.0001691112
86.09926,-0.0001689135
86.19926,-0.0001687496
86.29926,-0.0001683917
86.39925,-0.0001681384
86.49925,-0.0001678483
86.59925,-0.0001675752
86.69925,-0.0001673285
86.79925,-0.0001670187
86.89925,-0.0001667305
86.99924,-0.0001665469
87.09924,-0.0001663039
87.19924,-0.0001659847
87.29924,-0.0001657643
87.39924,-0.0001655458
87.49924,-0.0001652134
87.59924,-0.0001650542
87.69923,-0.0001648122
87.79923,-0.0001645297
87.89923,-0.0001642632
87.99923,-0.0001640626
88.09923,-0.0001638601
88.19923,-0.000163539
88.29922,-0.0001633506
88.39922,-0.0001630992
88.49922,-0.0001628581
88.59922,-0.0001626283
88.69922,-0.0001623769
88.79922,-0.0001621433
88.89922,-0.0001619277
88.99921,-0.0001616696
89.09921,-0.0001614191
89.19921,-0.0001611668
89.29921,-0.0001609662
89.39921,-0.0001607241
89.49921,-0.0001604821
89.59921,-0.0001603032
89.6992,-0.0001599962
89.7992,-0.0001598078
89.8992,-0.0001596091
89.9992,-0.0001593906
90.0992,-0.0001591543
90.1992,-0.0001589
90.29919,-0.0001586778
90.39919,-0.0001584273
90.49919,-0.0001582389
90.59919,-0.0001579705
90.69919,-0.0001577756
90.79919,-0.0001575561
90.89919,-0.0001572953
90.99918,-0.0001571474
91.09918,-0.0001568857
91.19918,-0.0001565909
91.29918,-0.0001564449
91.39918,-0.0001562067
91.49918,-0.0001559392
91.59917,-0.0001558168
91.69917,-0.0001555983
91.79917,-0.0001552951
91.89917,-0.0001551736
91.99917,-0.0001549626
92.09917,-0.0001547084
92.19917,-0.000154537
92.29916,-0.0001543175
92.39916,-0.0001540369
92.49916,-0.0001538928
92.59916,-0.0001537261
92.69916,-0.0001534502
92.79916,-0.0001532703
92.89915,-0.0001531065
92.99915,-0.0001528193
93.09915,-0.0001526168
93.19915,-0.0001524039
93.29915,-0.0001521676
93.39915,-0.0001520263
93.49915,-0.0001518022
93.59914,-0.0001515432
93.69914,-0.0001513568
93.79914,-0.0001511656
93.89914,-0.0001509424
93.99914,-0.0001507766
94.09914,-0.0001505224
94.19913,-0.0001502907
94.29913,-0.0001501005
94.39913,-0.0001499376
94.49913,-0.0001497106
94.59913,-0.0001495627
94.69913,-0.000149365
94.79913,-0.0001491512
94.89912,-0.000148961
94.99912,-0.0001487491
95.09912,-0.0001485428
95.19912,-0.0001483432
95.29912,-0.0001481511
95.39912,-0.0001479825
95.49911,-0.0001477744
95.59911,-0.000147587
95.69911,-0.0001474109
95.79911,-0.0001472536
95.89911,-0.0001470577
95.99911,-0.0001468958
96.09911,-0.0001467432
96.1991,-0.0001466349
96.2991,-0.0001464711
96.3991,-0.0001461989
96.4991,-0.0001460115
96.5991,-0.0001457629
96.6991,-0.0001456734
96.7991,-0.0001455124
96.89909,-0.0001452684
96.99909,-0.0001450895
97.09909,-0.0001449266
97.19909,-0.0001447335
97.29909,-0.0001445348
97.39909,-0.0001443559
97.49908,-0.0001441732
97.59908,-0.0001439886
97.69908,-0.0001439246
97.79908,-0.0001437231
97.89908,-0.0001435055
97.99908,-0.0001433219
98.09908,-0.0001431119
98.19907,-0.0001429226
98.29907,-0.000142771
98.39907,-0.0001426985
98.49907,-0.0001424451
98.59907,-0.0001422248
98.69907,-0.0001420816
98.79906,-0.0001418782
98.89906,-0.0001417624
98.99906,-0.0001415335
99.09906,-0.0001413424
99.19906,-0.0001412049
99.29906,-0.0001410354
99.39906,-0.0001408046
99.49905,-0.0001406069
99.59905,-0.0001404468
99.69905,-0.0001402679
99.79905,-0.0001401068
99.89905,-0.0001399269
99.99905,-0.0001397395
100.099,-0.00013957
100.199,-0.0001394259
100.299,-0.0001392018
100.399,-0.0001390455
100.499,-0.0001388835
100.599,-0.0001387498
100.699,-0.0001386142
100.799,-0.0001384239
100.899,-0.0001382459
100.999,-0.0001380698
101.099,-0.0001378881
101.199,-0.0001377054
101.299,-0.0001375133
101.399,-0.0001373796
101.499,-0.0001372025
101.599,-0.0001370396
101.699,-0.0001368767
101.799,-0.000136742
101.899,-0.0001365386
101.999,-0.0001364077
102.099,-0.0001362184
102.199,-0.0001360291
102.299,-0.0001358634
102.399,-0.000135708
102.499,-0.00013553
102.599,-0.0001354189
102.699,-0.0001352023
102.799,-0.0001350328
102.899,-0.0001348849
102.999,-0.0001347352
103.099,-0.0001345609
103.199,-0.0001344056
103.299,-0.0001342521
103.399,-0.0001340647
103.499,-0.0001339149
103.599,-0.0001337718
103.699,-0.0001336079
103.799,-0.0001334516
103.899,-0.0001333141
103.999,-0.000133155
104.099,-0.0001329911
104.199,-0.0001328366
104.299,-0.0001326634
104.399,-0.000132507
104.499,-0.0001323582
104.599,-0.0001322283
104.699,-0.00013204
104.799,-0.0001318262
104.899,-0.000131683
104.999,-0.0001316256
105.099,-0.0001314523
105.199,-0.00013123
105.299,-0.000131102
105.399,-0.0001309777
105.499,-0.0001307865
105.599,-0.0001306838
105.699,-0.0001305351
105.799,-0.0001303712
105.899,-0.0001302337
105.999,-0.0001300623
106.099,-0.0001298749
106.199,-0.0001297591
106.299,-0.0001296979
106.3989,-0.0001294587
106.4989,-0.0001293183
106.5989,-0.0001291507
106.6989,-0.0001290104
106.7989,-0.0001289577
106.8989,-0.0001288343
106.9989,-0.0001286139
107.0989,-0.0001284793
107.1989,-0.000128338
107.2989,-0.0001281694
107.3989,-0.0001281082
107.4989,-0.0001280884
107.5989,-0.0001278831
107.6989,-0.000127707
107.7989,-0.0001276063
107.8989,-0.0001274904
107.9989,-0.0001273162
108.0989,-0.0001272023
108.1989,-0.0001270846
108.2989,-0.00012698
108.3989,-0.0001268632
108.4989,-0.0001267305
108.5989,-0.0001265666
108.6989,-0.0001264338
108.7989,-0.0001262426
108.8989,-0.0001261278
108.9989,-0.0001260449
109.0989,-0.000125898
109.1989,-0.0001257445
109.2989,-0.000125623
109.3989,-0.0001255015
109.4989,-0.0001254535
109.5989,-0.0001252444
109.6989,-0.0001250711
109.7989,-0.0001249958
109.8989,-0.0001248366
109.9989,-0.000124702
110.0989,-0.0001245306
110.1989,-0.0001244063
110.2989,-0.0001242584
110.3989,-0.0001241351
110.4989,-0.0001239815
110.5989,-0.0001238507
110.6989,-0.0001237235
110.7989,-0.0001235954
110.8989,-0.0001234419
110.9989,-0.0001233035
111.0989,-0.0001231641
111.1989,-0.0001230709
111.2989,-0.000122923
111.3989,-0.0001227837
111.4989,-0.0001226518
111.5989,-0.000122504
111.6989,-0.0001224098
111.7989,-0.0001222591
111.8989,-0.0001221216
111.9989,-0.0001220171
112.0989,-0.0001219116
112.1989,-0.0001217167
112.2989,-0.000121615
112.3989,-0.0001215151
112.4989,-0.0001213645
112.5989,-0.000121308
112.6989,-0.0001211291
112.7989,-0.0001209633
112.8988,-0.0001208748
112.9988,-0.0001207778
113.0988,-0.0001206544
113.1988,-0.0001205254
113.2988,-0.0001203907
113.3988,-0.0001202608
113.4988,-0.0001201468
113.5988,-0.0001200583
113.6988,-0.0001198888
113.7988,-0.0001198021
113.8988,-0.0001197099
113.9988,-0.0001195253
114.0988,-0.0001194537
114.1988,-0.0001193313
114.2988,-0.0001191881
114.3988,-0.0001191034
114.4988,-0.0001189536
114.5988,-0.0001187945
114.6988,-0.0001186674
114.7988,-0.0001185534
114.8988,-0.0001184178
114.9988,-0.0001183161
115.0988,-0.0001182134
115.1988,-0.0001180656
115.2988,-0.0001179686
115.3988,-0.0001178951
115.4988,-0.0001177699
115.5988,-0.000117639
115.6988,-0.0001175232
115.7988,-0.0001174139
115.8988,-0.0001172557
115.9988,-0.0001171757
116.0988,-0.0001170269
116.1988,-0.0001169082
116.2988,-0.0001168206
116.3988,-0.0001166907
116.4988,-0.0001165212
116.5988,-0.0001165607
116.6988,-0.0001164873
116.7988,-0.000116266
116.8988,-0.0001161454
116.9988,-0.0001160757
117.0988,-0.0001159166
117.1988,-0.000115829
117.2988,-0.000115684
117.3988,-0.0001155191
117.4988,-0.00011544
117.5988,-0.0001153694
117.6988,-0.0001152131
117.7988,-0.0001151048
117.8988,-0.0001149965
117.9988,-0.0001148345
118.0988,-0.0001147535
118.1988,-0.0001146396
118.2988,-0.0001145049
118.3988,-0.000114407
118.4988,-0.0001143128
118.5988,-0.0001141828
118.6988,-0.0001140868
118.7988,-0.0001139851
118.8988,-0.0001138457
118.9988,-0.00011376
119.0988,-0.0001136573
119.1988,-0.0001135312
119.2988,-0.000113421
119.3988,-0.0001133343
119.4987,-0.0001131978
119.5987,-0.0001130961
119.6987,-0.0001129906
119.7987,-0.0001128682
119.8987,-0.0001128023
119.9987,-0.0001126798
120.0987,-0.000112531
120.1987,-0.0001124557
120.2987,-0.0001123898
120.3987,-0.0001122306
120.4987,-0.0001121186
120.5987,-0.0001120536
120.6987,-0.0001119208
120.7987,-0.0001118511
120.8987,-0.0001117541
120.9987,-0.0001115808
121.0987,-0.0001114867
121.1987,-0.0001113981
121.2987,-0.0001112691
121.3987,-0.0001111363
121.4987,-0.0001110478
121.5987,-0.0001109197
121.6987,-0.000110899
121.7987,-0.000110818
121.8987,-0.0001106325
121.9987,-0.0001105515
122.0987,-0.0001104545
122.1987,-0.0001103161
122.2987,-0.0001102087
122.3987,-0.0001101532
122.4987,-0.0001100778
122.5987,-0.0001099535
122.6987,-0.0001098989
122.7987,-0.0001098085
122.8987,-0.000109655
122.9987,-0.0001095721
123.0987,-0.0001095137
123.1987,-0.0001093791
123.2987,-0.0001093207
123.3987,-0.0001091672
123.4987,-0.0001090739
123.5987,-0.0001089864
123.6987,-0.0001088658
123.7987,-0.0001087255
123.8987,-0.0001086972
123.9987,-0.0001086436
124.0987,-0.0001084863
124.1987,-0.0001083997
124.2987,-0.0001083422
124.3987,-0.0001082424
124.4987,-0.0001081623
124.5987,-0.0001080352
124.6987,-0.0001078732
124.7987,-0.000107828
124.8987,-0.0001077536
124.9987,-0.0001076321
125.0987,-0.0001074796
125.1987,-0.0001073901
125.2987,-0.0001072959
125.3987,-0.000107246
125.4987,-0.0001071547
125.5987,-0.0001070134
125.6987,-0.0001069447
125.7987,-0.000106843
125.8987,-0.0001067479
125.9986,-0.0001066716
126.0986,-0.0001065784
126.1986,-0.0001064691
126.2986,-0.000106358
126.3986,-0.0001062629
126.4986,-0.0001061404
126.5986,-0.0001061009
126.6986,-0.0001060585
126.7986,-0.0001058777
126.8986,-0.0001058476
126.9986,-0.0001057496
127.0986,-0.0001056489
127.1986,-0.000105614
127.2986,-0.0001055114
127.3986,-0.0001053588
127.4986,-0.0001053362
127.5986,-0.0001052213
127.6986,-0.000105081
127.7986,-0.0001049991
127.8986,-0.0001049134
127.9986,-0.0001047957
128.0986,-0.0001047184
128.1986,-0.00010466
128.2986,-0.0001045574
128.3986,-0.0001044726
128.4986,-0.0001044406
128.5986,-0.0001043982
128.6987,-0.0001042645
128.7987,-0.0001041666
128.8987,-0.0001040517
128.9987,-0.0001039575
129.0987,-0.0001039001
129.1987,-0.0001038313
129.2987,-0.000103723
129.3987,-0.0001036562
129.4987,-0.0001035403
129.5987,-0.0001034527
129.6987,-0.0001033558
129.7987,-0.0001032635
129.8987,-0.0001031806
129.9987,-0.0001031081
130.0987,-0.0001030139
130.1987,-0.0001029084
130.2988,-0.0001028321
130.3988,-0.0001027314
130.4988,-0.0001026692
130.5988,-0.0001025892
130.6988,-0.0001024988
130.7988,-0.0001023961
130.8988,-0.0001022935
130.9988,-0.0001021965
131.0988,-0.00010214
131.1988,-0.0001020364
131.2988,-0.0001019309
131.3988,-0.0001018396
131.4988,-0.0001017689
131.5988,-0.0001016757
131.6988,-0.0001016136
131.7988,-0.0001015599
131.8988,-0.0001014224
131.9989,-0.0001013583
132.0989,-0.0001012802
132.1989,-0.0001011691
132.2989,-0.0001011154
132.3989,-0.0001010504
132.4989,-0.0001010108
132.5989,-0.0001009016
132.6989,-0.0001008046
132.7989,-0.0001007481
132.8989,-0.0001006021
132.9989,-0.0001005532
133.0989,-0.0001004872
133.1989,-0.000100362
133.2989,-0.0001003158
133.3989,-0.0001002424
133.4989,-0.0001001595
133.599,-0.0001000512
133.699,-0.0001000051
133.799,-9.988076E-05
133.899,-9.984591E-05
133.999,-9.973573E-05
134.099,-9.963026E-05
134.199,-9.958412E-05
134.299,-9.950312E-05
134.399,-9.937694E-05
134.499,-9.930818E-05
134.599,-9.92159E-05
134.699,-9.912925E-05
134.799,-9.907935E-05
134.899,-9.902191E-05
134.999,-9.887782E-05
135.099,-9.885238E-05
135.1991,-9.87488E-05
135.2991,-9.865745E-05
135.3991,-9.857929E-05
135.4991,-9.850677E-05
135.5991,-9.844085E-05
135.6991,-9.837682E-05
135.7991,-9.828358E-05
135.8991,-9.817151E-05
135.9991,-9.814232E-05
136.0991,-9.805569E-05
136.1991,-9.800577E-05
136.2991,-9.794456E-05
136.3991,-9.782684E-05
136.4991,-9.77854E-05
136.5991,-9.772608E-05
136.6991,-9.760083E-05
136.7991,-9.75189E-05
136.8992,-9.748217E-05
136.9992,-9.738423E-05
137.0992,-9.73089E-05
137.1992,-9.727216E-05
137.2992,-9.717893E-05
137.3992,-9.708005E-05
137.4992,-9.702166E-05
137.5992,-9.691053E-05
137.6992,-9.68173E-05
137.7992,-9.677964E-05
137.8992,-9.669771E-05
137.9992,-9.662143E-05
138.0992,-9.653385E-05
138.1992,-9.647546E-05
138.2992,-9.644721E-05
138.3992,-9.636811E-05
138.4993,-9.6289E-05
138.5993,-9.620612E-05
138.6993,-9.612043E-05
138.7993,-9.605922E-05
138.8993,-9.598576E-05
138.9993,-9.592078E-05
139.0993,-9.583132E-05
139.1993,-9.577576E-05
139.2993,-9.570889E-05
139.3993,-9.563355E-05
139.4993,-9.556481E-05
139.5993,-9.547157E-05
139.6993,-9.541695E-05
139.7993,-9.535574E-05
139.8993,-9.527098E-05
139.9993,-9.519282E-05
140.0993,-9.510147E-05
140.1994,-9.50412E-05
140.2994,-9.4996E-05
140.3994,-9.491124E-05
140.4994,-9.481142E-05
140.5994,-9.475587E-05
140.6994,-9.469748E-05
140.7994,-9.458069E-05
140.8994,-9.455244E-05
140.9994,-9.449217E-05
141.0994,-9.440647E-05
141.1994,-9.436975E-05
141.2994,-9.42718E-05
141.3994,-9.417011E-05
141.4994,-9.409947E-05
141.5994,-9.405898E-05
141.6994,-9.396292E-05
141.7995,-9.388193E-05
141.8995,-9.382072E-05
141.9995,-9.373502E-05
142.0995,-9.371147E-05
142.1995,-9.36352E-05
142.2995,-9.351089E-05
142.3995,-9.349394E-05
142.4995,-9.345815E-05
142.5995,-9.335268E-05
142.6995,-9.332537E-05
142.7995,-9.321424E-05
142.8995,-9.30937E-05
142.9995,-9.30824E-05
143.0995,-9.302496E-05
143.1995,-9.289217E-05
143.2995,-9.28432E-05
143.3996,-9.276504E-05
143.4996,-9.267274E-05
143.5996,-9.262472E-05
143.6996,-9.25814E-05
143.7996,-9.248441E-05
143.8996,-9.239399E-05
143.9996,-9.237799E-05
144.0996,-9.228192E-05
144.1996,-9.222354E-05
144.2996,-9.215291E-05
144.3996,-9.204838E-05
144.4996,-9.198058E-05
144.5996,-9.196268E-05
144.6996,-9.18459E-05
144.7996,-9.178941E-05
144.8996,-9.170088E-05
144.9996,-9.161895E-05
145.0997,-9.159447E-05
145.1997,-9.15502E-05
145.2997,-9.144285E-05
145.3997,-9.138823E-05
145.4997,-9.134961E-05
145.5997,-9.124697E-05
145.6997,-9.119423E-05
145.7997,-9.111136E-05
145.8997,-9.100777E-05
145.9997,-9.095221E-05
146.0997,-9.088629E-05
146.1997,-9.08439E-05
146.2997,-9.079964E-05
146.3997,-9.071959E-05
146.4997,-9.063484E-05
146.5997,-9.062825E-05
146.6998,-9.054915E-05
146.7998,-9.044744E-05
146.8998,-9.044367E-05
146.9998,-9.036832E-05
147.0998,-9.031089E-05
147.1998,-9.020824E-05
147.2998,-9.015173E-05
147.3998,-9.010277E-05
147.4998,-9.005096E-05
147.5998,-8.994832E-05
147.6998,-8.988993E-05
147.7998,-8.985226E-05
147.8998,-8.977034E-05
147.9998,-8.970253E-05
148.0998,-8.969029E-05
148.1998,-8.961683E-05
148.2999,-8.954715E-05
148.3999,-8.947746E-05
148.4999,-8.946898E-05
148.5999,-8.938234E-05
148.6999,-8.932489E-05
148.7999,-8.930511E-05
148.8999,-8.916857E-05
148.9999,-8.909606E-05
149.0999,-8.907816E-05
149.1999,-8.900847E-05
149.2999,-8.887663E-05
149.3999,-8.887192E-05
149.4999,-8.879658E-05
149.5999,-8.867039E-05
149.6999,-8.867322E-05
149.7999,-8.861294E-05
149.8999,-8.851595E-05
150,-8.844532E-05
150.1,-8.843213E-05
150.2,-8.836527E-05
150.3,-8.829369E-05
150.4,-8.82419E-05
150.5,-8.815149E-05
150.6,-8.812606E-05
150.7,-8.80818E-05
150.8,-8.798104E-05
150.9,-8.793207E-05
151,-8.788499E-05
151.1,-8.783131E-05
151.2,-8.780117E-05
151.3,-8.772583E-05
151.4,-8.766274E-05
151.5,-8.763072E-05
151.6001,-8.757421E-05
151.7001,-8.746968E-05
151.8001,-8.749134E-05
151.9001,-8.743013E-05
152.0001,-8.727569E-05
152.1001,-8.726439E-05
152.2001,-8.723331E-05
152.3001,-8.719375E-05
152.4001,-8.710994E-05
152.5001,-8.702235E-05
152.6001,-8.695079E-05
152.7001,-8.68858E-05
152.8001,-8.68585E-05
152.9001,-8.679069E-05
153.0001,-8.673043E-05
153.1001,-8.668616E-05
153.2001,-8.662683E-05
153.3002,-8.655526E-05
153.4002,-8.653737E-05
153.5002,-8.644885E-05
153.6002,-8.637727E-05
153.7002,-8.634714E-05
153.8002,-8.629064E-05
153.9002,-8.621529E-05
154.0002,-8.616727E-05
154.1002,-8.612583E-05
154.2002,-8.607875E-05
154.3002,-8.602601E-05
154.4002,-8.595632E-05
154.5002,-8.586121E-05
154.6002,-8.582918E-05
154.7002,-8.58113E-05
154.8002,-8.573784E-05
154.9003,-8.567757E-05
155.0003,-8.559941E-05
155.1003,-8.552218E-05
155.2003,-8.552407E-05
155.3003,-8.545531E-05
155.4003,-8.539034E-05
155.5003,-8.534324E-05
155.6003,-8.528016E-05
155.7003,-8.521141E-05
155.8003,-8.518786E-05
155.9003,-8.513419E-05
156.0003,-8.502966E-05
156.1003,-8.498728E-05
156.2003,-8.496467E-05
156.3003,-8.487898E-05
156.4003,-8.485355E-05
156.5004,-8.472453E-05
156.6004,-8.474902E-05
156.7004,-8.474148E-05
156.8004,-8.464166E-05
156.9004,-8.45569E-05
157.0004,-8.450983E-05
157.1004,-8.445332E-05
157.2004,-8.437233E-05
157.3004,-8.4329E-05
157.4004,-8.42499E-05
157.5004,-8.418304E-05
157.6004,-8.415667E-05
157.7004,-8.409923E-05
157.8004,-8.400412E-05
157.9004,-8.400599E-05
158.0004,-8.400317E-05
158.1004,-8.393536E-05
158.2005,-8.388545E-05
158.3005,-8.378751E-05
158.4005,-8.373854E-05
158.5005,-8.369052E-05
158.6005,-8.360953E-05
158.7005,-8.353984E-05
158.8005,-8.35097E-05
158.9005,-8.344378E-05
159.0005,-8.338163E-05
159.1005,-8.333736E-05
159.2005,-8.329781E-05
159.3005,-8.326485E-05
159.4005,-8.323283E-05
159.5005,-8.318198E-05
159.6005,-8.311041E-05
159.7005,-8.30426E-05
159.8006,-8.302848E-05
159.9006,-8.29569E-05
160.0006,-8.286932E-05
160.1006,-8.282882E-05
160.2006,-8.276196E-05
160.3006,-8.269981E-05
160.4006,-8.26838E-05
160.5006,-8.260941E-05
160.6006,-8.256703E-05
160.7006,-8.256043E-05
160.8006,-8.248134E-05
160.9006,-8.24333E-05
161.0006,-8.240411E-05
161.1006,-8.233442E-05
161.2006,-8.227132E-05
161.3006,-8.223742E-05
161.4007,-8.216302E-05
161.5007,-8.215832E-05
161.6007,-8.213383E-05
161.7007,-8.204248E-05
161.8007,-8.197374E-05
161.9007,-8.195209E-05
162.0007,-8.190782E-05
162.1007,-8.184848E-05
162.2007,-8.179198E-05
162.3007,-8.172795E-05
162.4007,-8.167239E-05
162.5007,-8.167521E-05
162.6007,-8.159704E-05
162.7007,-8.153301E-05
162.8007,-8.150381E-05
162.9007,-8.145485E-05
163.0007,-8.137668E-05
163.1008,-8.132865E-05
163.2008,-8.127498E-05
163.3008,-8.124673E-05
163.4008,-8.122224E-05
163.5008,-8.114314E-05
163.6008,-8.108286E-05
163.7008,-8.103577E-05
163.8008,-8.102071E-05
163.9008,-8.094725E-05
164.0008,-8.089546E-05
164.1008,-8.082483E-05
164.2008,-8.077869E-05
164.3008,-8.075891E-05
164.4008,-8.071181E-05
164.5008,-8.06346E-05
164.6008,-8.05715E-05
164.7009,-8.052913E-05
164.8009,-8.047921E-05
164.9009,-8.045472E-05
165.0009,-8.041612E-05
165.1009,-8.034266E-05
165.2009,-8.027391E-05
165.3009,-8.026544E-05
165.4009,-8.024943E-05
165.5009,-8.022494E-05
165.6009,-8.014866E-05
165.7009,-8.008745E-05
165.8009,-8.00253E-05
165.9009,-7.997915E-05
166.0009,-7.992076E-05
166.1009,-7.987462E-05
166.2009,-7.98492E-05
166.3009,-7.977291E-05
166.401,-7.977197E-05
166.501,-7.971453E-05
166.601,-7.963071E-05
166.701,-7.959963E-05
166.801,-7.957515E-05
166.901,-7.947061E-05
167.001,-7.944237E-05
167.101,-7.940187E-05
167.201,-7.933217E-05
167.301,-7.933783E-05
167.401,-7.927474E-05
167.501,-7.917303E-05
167.601,-7.915325E-05
167.701,-7.912594E-05
167.801,-7.906379E-05
167.901,-7.905814E-05
168.0011,-7.89828E-05
168.1011,-7.890558E-05
168.2011,-7.888297E-05
168.3011,-7.883683E-05
168.4011,-7.878974E-05
168.5011,-7.874737E-05
168.6011,-7.869746E-05
168.7011,-7.863813E-05
168.8011,-7.862494E-05
168.9011,-7.856749E-05
169.0011,-7.850628E-05
169.1011,-7.84658E-05
169.2011,-7.843942E-05
169.3011,-7.835655E-05
169.4011,-7.831982E-05
169.5011,-7.826896E-05
169.6012,-7.822E-05
169.7012,-7.820399E-05
169.8012,-7.81343E-05
169.9012,-7.806462E-05
170.0012,-7.801187E-05
170.1012,-7.797609E-05
170.2012,-7.793182E-05
170.3012,-7.788285E-05
170.4012,-7.78273E-05
170.5012,-7.774254E-05
170.6012,-7.772747E-05
170.7012,-7.767756E-05
170.8012,-7.759657E-05
170.9012,-7.755702E-05
171.0012,-7.752594E-05
171.1012,-7.745626E-05
171.2012,-7.741576E-05
171.3013,-7.733853E-05
171.4013,-7.732629E-05
171.5013,-7.734136E-05
171.6013,-7.728297E-05
171.7013,-7.718692E-05
171.8013,-7.713417E-05
171.9013,-7.710404E-05
172.0013,-7.70353E-05
172.1013,-7.700799E-05
172.2013,-7.698163E-05
172.3013,-7.687803E-05
172.4013,-7.68639E-05
172.5013,-7.685072E-05
172.6013,-7.679139E-05
172.7013,-7.678009E-05
172.8013,-7.670475E-05
172.9014,-7.663883E-05
173.0014,-7.660492E-05
173.1014,-7.658232E-05
173.2014,-7.64938E-05
173.3014,-7.644107E-05
173.4014,-7.643071E-05
173.5014,-7.635725E-05
173.6014,-7.632241E-05
173.7014,-7.631394E-05
173.8014,-7.626496E-05
173.9014,-7.623483E-05
174.0014,-7.621411E-05
174.1014,-7.614631E-05
174.2014,-7.611993E-05
174.3014,-7.60964E-05
174.4014,-7.602011E-05
174.5014,-7.596549E-05
174.6015,-7.595043E-05
174.7015,-7.589674E-05
174.8015,-7.592123E-05
174.9015,-7.589298E-05
175.0015,-7.57762E-05
175.1015,-7.570369E-05
175.2015,-7.577526E-05
175.3015,-7.571028E-05
175.4015,-7.56453E-05
175.5015,-7.561234E-05
175.6015,-7.555772E-05
175.7015,-7.551157E-05
175.8015,-7.552571E-05
175.9015,-7.545696E-05
176.0015,-7.538727E-05
176.1015,-7.535808E-05
176.2016,-7.530345E-05
176.3016,-7.524977E-05
176.4016,-7.526956E-05
176.5016,-7.517914E-05
176.6016,-7.513677E-05
176.7016,-7.512358E-05
176.8016,-7.512076E-05
176.9016,-7.503882E-05
177.0016,-7.499457E-05
177.1016,-7.49682E-05
177.2016,-7.489946E-05
177.3016,-7.490605E-05
177.4016,-7.48486E-05
177.5016,-7.478927E-05
177.6016,-7.477797E-05
177.7016,-7.471393E-05
177.8017,-7.466401E-05
177.9017,-7.463765E-05
178.0017,-7.457833E-05
178.1017,-7.451146E-05
178.2017,-7.451146E-05
178.3017,-7.450392E-05
178.4017,-7.443424E-05
178.5017,-7.441446E-05
178.6017,-7.436831E-05
178.7017,-7.434101E-05
178.8017,-7.434572E-05
178.9017,-7.428356E-05
179.0017,-7.419691E-05
179.1017,-7.416301E-05
179.2017,-7.4131E-05
179.3017,-7.407732E-05
179.4017,-7.404342E-05
179.5018,-7.403118E-05
179.6018,-7.39549E-05
179.7018,-7.393041E-05
179.8018,-7.392288E-05
179.9018,-7.383906E-05
180.0018,-7.379292E-05
180.1018,-7.376184E-05
180.2018,-7.369498E-05
180.3018,-7.366956E-05
180.4018,-7.36366E-05
180.5018,-7.357443E-05
180.6018,-7.354524E-05
180.7018,-7.349438E-05
180.8018,-7.345201E-05
180.9018,-7.343882E-05
181.0018,-7.34021E-05
181.1019,-7.33456E-05
181.2019,-7.331734E-05
181.3019,-7.329568E-05
181.4019,-7.323635E-05
181.5019,-7.321469E-05
181.6019,-7.315631E-05
181.7019,-7.310922E-05
181.8019,-7.309415E-05
181.9019,-7.307343E-05
182.0019,-7.298679E-05
182.1019,-7.295854E-05
182.2019,-7.294913E-05
182.3019,-7.287566E-05
182.4019,-7.282294E-05
182.5019,-7.278997E-05
182.6019,-7.274665E-05
182.702,-7.272499E-05
182.802,-7.26958E-05
182.902,-7.262141E-05
183.002,-7.259597E-05
183.102,-7.258938E-05
183.202,-7.254795E-05
183.302,-7.251781E-05
183.402,-7.245377E-05
183.502,-7.239915E-05
183.602,-7.236148E-05
183.702,-7.233041E-05
183.802,-7.227014E-05
183.902,-7.222305E-05
184.002,-7.219668E-05
184.102,-7.216466E-05
184.202,-7.21317E-05
184.302,-7.209404E-05
184.4021,-7.204225E-05
184.5021,-7.198574E-05
184.6021,-7.198103E-05
184.7021,-7.194901E-05
184.8021,-7.18925E-05
184.9021,-7.189815E-05
185.0021,-7.187367E-05
185.1021,-7.179645E-05
185.2021,-7.175878E-05
185.3021,-7.171357E-05
185.4021,-7.168249E-05
185.5021,-7.170792E-05
185.6021,-7.163164E-05
185.7021,-7.156291E-05
185.8021,-7.153276E-05
185.9021,-7.149792E-05
186.0022,-7.145177E-05
186.1022,-7.14499E-05
186.2022,-7.136137E-05
186.3022,-7.132463E-05
186.4022,-7.134253E-05
186.5022,-7.134159E-05
186.6022,-7.122671E-05
186.7022,-7.120315E-05
186.8022,-7.118244E-05
186.9022,-7.110522E-05
187.0022,-7.111558E-05
187.1022,-7.109768E-05
187.2022,-7.101481E-05
187.3022,-7.099315E-05
187.4022,-7.09536E-05
187.5022,-7.088391E-05
187.6022,-7.089709E-05
187.7023,-7.084153E-05
187.8023,-7.079538E-05
187.9023,-7.077467E-05
188.0023,-7.070968E-05
188.1023,-7.066166E-05
188.2023,-7.067108E-05
188.3023,-7.06513E-05
188.4023,-7.057974E-05
188.5023,-7.055148E-05
188.6023,-7.049969E-05
188.7023,-7.045636E-05
188.8023,-7.047237E-05
188.9023,-7.039044E-05
189.0023,-7.0349E-05
189.1023,-7.035277E-05
189.2023,-7.030851E-05
189.3024,-7.025577E-05
189.4024,-7.027367E-05
189.5024,-7.02586E-05
189.6024,-7.017478E-05
189.7024,-7.018985E-05
189.8024,-7.018515E-05
189.9024,-7.011451E-05
190.0024,-7.008532E-05
190.1024,-7.011451E-05
190.2024,-7.002788E-05
190.3024,-7.001752E-05
190.4024,-7.000904E-05
190.5024,-6.992334E-05
190.6024,-6.994312E-05
190.7024,-6.992334E-05
190.8024,-6.98546E-05
190.9025,-6.981975E-05
191.0025,-6.979339E-05
191.1025,-6.976984E-05
191.2025,-6.97736E-05
191.3025,-6.974535E-05
191.4025,-6.970487E-05
191.5025,-6.965589E-05
191.6025,-6.966813E-05
191.7025,-6.961069E-05
191.8025,-6.959845E-05
191.9025,-6.962387E-05
192.0025,-6.955324E-05
192.1025,-6.947884E-05
192.2025,-6.949203E-05
192.3025,-6.947225E-05
192.4025,-6.943741E-05
192.5025,-6.938656E-05
192.6026,-6.936112E-05
192.7026,-6.929615E-05
192.8026,-6.932064E-05
192.9026,-6.927731E-05
193.0026,-6.9234E-05
193.1026,-6.921704E-05
193.2026,-6.919538E-05
193.3026,-6.918879E-05
193.4026,-6.918032E-05
193.5026,-6.912005E-05
193.6026,-6.906072E-05
193.7026,-6.90626E-05
193.8026,-6.907484E-05
193.9026,-6.901551E-05
194.0026,-6.899762E-05
194.1026,-6.896654E-05
194.2027,-6.893169E-05
194.3027,-6.89204E-05
194.4027,-6.888273E-05
194.5027,-6.881963E-05
194.6027,-6.880833E-05
194.7027,-6.879326E-05
194.8027,-6.873111E-05
194.9027,-6.871321E-05
195.0027,-6.869062E-05
195.1027,-6.866237E-05
195.2027,-6.865107E-05
195.3027,-6.858891E-05
195.4027,-6.85437E-05
195.5027,-6.861716E-05
195.6027,-6.861528E-05
195.7027,-6.849851E-05
195.8027,-6.847967E-05
195.9028,-6.846365E-05
196.0028,-6.838456E-05
196.1028,-6.841281E-05
196.2028,-6.836854E-05
196.3028,-6.830828E-05
196.4028,-6.830357E-05
196.5028,-6.824989E-05
196.6028,-6.821881E-05
196.7028,-6.821504E-05
196.8028,-6.817925E-05
196.9028,-6.812558E-05
197.0028,-6.813312E-05
197.1028,-6.811145E-05
197.2028,-6.805118E-05
197.3028,-6.804177E-05
197.4028,-6.800504E-05
197.5029,-6.791934E-05
197.6029,-6.793629E-05
197.7029,-6.79231E-05
197.8029,-6.787602E-05
197.9029,-6.786283E-05
198.0029,-6.781104E-05
198.1029,-6.776207E-05
198.2029,-6.776583E-05
198.3029,-6.776207E-05
198.4029,-6.766507E-05
198.5029,-6.765E-05
198.6029,-6.763118E-05
198.7029,-6.758126E-05
198.8029,-6.759349E-05
198.9029,-6.754359E-05
199.0029,-6.748049E-05
199.103,-6.746354E-05
199.203,-6.746448E-05
199.303,-6.744565E-05
199.403,-6.73703E-05
199.503,-6.73496E-05
199.603,-6.73138E-05
199.703,-6.729591E-05
199.803,-6.727143E-05
199.903,-6.722246E-05
200.003,-6.718102E-05
200.103,-6.715277E-05
200.203,-6.713676E-05
200.303,-6.710756E-05
200.403,-6.70859E-05
200.503,-6.703505E-05
200.603,-6.70181E-05
200.703,-6.699833E-05
200.8031,-6.694465E-05
200.9031,-6.691169E-05
201.0031,-6.69051E-05
201.1031,-6.684765E-05
201.2031,-6.683258E-05
201.3031,-6.683446E-05
201.4031,-6.674312E-05
201.5031,-6.669132E-05
201.6031,-6.668943E-05
201.7031,-6.664895E-05
201.8031,-6.662822E-05
201.9031,-6.664329E-05
202.0031,-6.656795E-05
202.1031,-6.651428E-05
202.2031,-6.652934E-05
202.3031,-6.648132E-05
202.4032,-6.64267E-05
202.5032,-6.640315E-05
202.6032,-6.638243E-05
202.7032,-6.633911E-05
202.8032,-6.633158E-05
202.9032,-6.628167E-05
203.0032,-6.625813E-05
203.1032,-6.624682E-05
203.2032,-6.620916E-05
203.3032,-6.620727E-05
203.4032,-6.617054E-05
203.5032,-6.610368E-05
203.6032,-6.608485E-05
203.7032,-6.608202E-05
203.8032,-6.603399E-05
203.9032,-6.599633E-05
204.0033,-6.5953E-05
204.1033,-6.591346E-05
204.2033,-6.590027E-05
204.3033,-6.589838E-05
204.4033,-6.585317E-05
204.5033,-6.581927E-05
204.6033,-6.576936E-05
204.7033,-6.573828E-05
204.8033,-6.571098E-05
204.9033,-6.571569E-05
205.0033,-6.565447E-05
205.1033,-6.56121E-05
205.2033,-6.561021E-05
205.3033,-6.554241E-05
205.4033,-6.554052E-05
205.5033,-6.551792E-05
205.6033,-6.547837E-05
205.7034,-6.543976E-05
205.8034,-6.541434E-05
205.9034,-6.535877E-05
206.0034,-6.533146E-05
206.1034,-6.531545E-05
206.2034,-6.527684E-05
206.3034,-6.525235E-05
206.4034,-6.524388E-05
206.5034,-6.516572E-05
206.6034,-6.51563E-05
206.7034,-6.516854E-05
206.8034,-6.511863E-05
206.9034,-6.510074E-05
207.0034,-6.505365E-05
207.1034,-6.502445E-05
207.2034,-6.501221E-05
207.3035,-6.498867E-05
207.4035,-6.4935E-05
207.5035,-6.489732E-05
207.6035,-6.488038E-05
207.7035,-6.484082E-05
207.8035,-6.48088E-05
207.9035,-6.480126E-05
208.0035,-6.474288E-05
208.1035,-6.477584E-05
208.2035,-6.471369E-05
208.3035,-6.466471E-05
208.4035,-6.463834E-05
208.5035,-6.459597E-05
208.6035,-6.459032E-05
208.7035,-6.455548E-05
208.8035,-6.454888E-05
208.9035,-6.451028E-05
209.0036,-6.447825E-05
209.1036,-6.446601E-05
209.2036,-6.445282E-05
209.3036,-6.43822E-05
209.4036,-6.435206E-05
209.5036,-6.432287E-05
209.6036,-6.426354E-05
209.7036,-6.426637E-05
209.8036,-6.424941E-05
209.9036,-6.420232E-05
210.0036,-6.41769E-05
210.1036,-6.415806E-05
210.2036,-6.414111E-05
210.3036,-6.411474E-05
210.4036,-6.409214E-05
210.5036,-6.404882E-05
210.6037,-6.408743E-05
210.7037,-6.4046E-05
210.8037,-6.396877E-05
210.9037,-6.393581E-05
211.0037,-6.394523E-05
211.1037,-6.392357E-05
211.2037,-6.388025E-05
211.3037,-6.393017E-05
211.4037,-6.389438E-05
211.5037,-6.384729E-05
211.6037,-6.380397E-05
211.7037,-6.375689E-05
211.8037,-6.373899E-05
211.9037,-6.372957E-05
212.0037,-6.369568E-05
212.1037,-6.367402E-05
212.2038,-6.368531E-05
212.3038,-6.364859E-05
212.4038,-6.360433E-05
212.5038,-6.359397E-05
212.6038,-6.356007E-05
212.7038,-6.35497E-05
212.8038,-6.351392E-05
212.9038,-6.350074E-05
213.0038,-6.346118E-05
213.1038,-6.349886E-05
213.2038,-6.346401E-05
213.3038,-6.33962E-05
213.4038,-6.336419E-05
213.5038,-6.335194E-05
213.6038,-6.332369E-05
213.7038,-6.329826E-05
213.8038,-6.32653E-05
213.9039,-6.323893E-05
214.0039,-6.320786E-05
214.1039,-6.321445E-05
214.2039,-6.317395E-05
214.3039,-6.314947E-05
214.4039,-6.312404E-05
214.5039,-6.309485E-05
214.6039,-6.307224E-05
214.7039,-6.306189E-05
214.8039,-6.303081E-05
214.9039,-6.300727E-05
215.0039,-6.296394E-05
215.1039,-6.294323E-05
215.2039,-6.293663E-05
215.3039,-6.293005E-05
215.4039,-6.28905E-05
215.504,-6.286036E-05
215.604,-6.283211E-05
215.704,-6.276996E-05
215.804,-6.276806E-05
215.904,-6.277466E-05
216.004,-6.273699E-05
216.104,-6.270591E-05
216.204,-6.263058E-05
216.304,-6.265789E-05
216.404,-6.268048E-05
216.504,-6.262586E-05
216.604,-6.258161E-05
216.704,-6.255523E-05
216.804,-6.255523E-05
216.904,-6.250061E-05
217.004,-6.247236E-05
217.104,-6.244976E-05
217.2041,-6.236689E-05
217.3041,-6.238855E-05
217.4041,-6.235182E-05
217.5041,-6.230379E-05
217.6041,-6.229344E-05
217.7041,-6.227648E-05
217.8041,-6.22407E-05
217.9041,-6.221527E-05
218.0041,-6.218231E-05
218.1041,-6.213052E-05
218.2041,-6.213617E-05
218.3041,-6.212487E-05
218.4041,-6.208814E-05
218.5041,-6.205423E-05
218.6041,-6.202222E-05
218.7041,-6.198267E-05
218.8042,-6.198267E-05
218.9042,-6.195818E-05
219.0042,-6.190168E-05
219.1042,-6.190356E-05
219.2042,-6.187625E-05
219.3042,-6.185553E-05
219.4042,-6.183199E-05
219.5042,-6.178019E-05
219.6042,-6.174723E-05
219.7042,-6.178867E-05
219.8042,-6.174912E-05
219.9042,-6.167378E-05
220.0042,-6.167001E-05
220.1042,-6.164929E-05
220.2042,-6.160409E-05
220.3042,-6.161445E-05
220.4043,-6.158242E-05
220.5043,-6.153157E-05
220.6043,-6.151463E-05
220.7043,-6.150991E-05
220.8043,-6.146754E-05
220.9043,-6.142987E-05
221.0043,-6.142045E-05
221.1043,-6.135547E-05
221.2043,-6.137713E-05
221.3043,-6.13357E-05
221.4043,-6.130274E-05
221.5043,-6.12726E-05
221.6043,-6.126601E-05
221.7043,-6.12387E-05
221.8043,-6.126035E-05
221.9043,-6.11982E-05
222.0043,-6.115959E-05
222.1044,-6.114264E-05
222.2044,-6.113416E-05
222.3044,-6.109649E-05
222.4044,-6.108425E-05
222.5044,-6.10447E-05
222.6044,-6.101174E-05
222.7044,-6.101551E-05
222.8044,-6.098819E-05
222.9044,-6.093735E-05
223.0044,-6.093357E-05
223.1044,-6.091474E-05
223.2044,-6.088743E-05
223.3044,-6.086766E-05
223.4044,-6.083752E-05
223.5044,-6.080267E-05
223.6044,-6.07942E-05
223.7045,-6.079797E-05
223.8045,-6.073769E-05
223.9045,-6.071792E-05
224.0045,-6.068119E-05
224.1045,-6.0652E-05
224.2045,-6.064447E-05
224.3045,-6.063975E-05
224.4045,-6.059267E-05
224.5045,-6.057384E-05
224.6045,-6.057007E-05
224.7045,-6.05098E-05
224.8045,-6.049755E-05
224.9045,-6.047778E-05
225.0045,-6.046459E-05
225.1045,-6.042881E-05
225.2045,-6.037513E-05
225.3046,-6.034593E-05
225.4046,-6.03723E-05
225.5046,-6.033275E-05
225.6046,-6.02819E-05
225.7046,-6.025741E-05
225.8046,-6.023292E-05
225.9046,-6.021127E-05
226.0046,-6.023104E-05
226.1046,-6.015571E-05
226.2046,-6.012369E-05
226.3046,-6.013687E-05
226.4046,-6.010203E-05
226.5046,-6.004646E-05
226.6046,-6.004646E-05
226.7046,-6.005212E-05
226.8046,-6.000408E-05
226.9046,-5.99796E-05
227.0047,-5.99457E-05
227.1047,-5.993251E-05
227.2047,-5.991839E-05
227.3047,-5.990897E-05
227.4047,-5.986283E-05
227.5047,-5.985435E-05
227.6047,-5.982987E-05
227.7047,-5.980538E-05
227.8047,-5.979596E-05
227.9047,-5.975641E-05
228.0047,-5.970085E-05
228.1047,-5.971498E-05
228.2047,-5.97065E-05
228.3047,-5.961138E-05
228.4047,-5.96095E-05
228.5047,-5.965565E-05
228.6048,-5.963681E-05
228.7048,-5.95982E-05
228.8048,-5.959255E-05
228.9048,-5.955488E-05
229.0048,-5.953699E-05
229.1048,-5.955394E-05
229.2048,-5.950026E-05
229.3048,-5.946636E-05
229.4048,-5.945505E-05
229.5048,-5.943622E-05
229.6048,-5.939667E-05
229.7048,-5.939479E-05
229.8048,-5.932228E-05
229.9048,-5.932793E-05
230.0048,-5.930815E-05
230.1048,-5.92912E-05
230.2048,-5.92799E-05
230.3049,-5.927707E-05
230.4049,-5.920455E-05
230.5049,-5.919043E-05
230.6049,-5.920361E-05
230.7049,-5.91829E-05
230.8049,-5.917066E-05
230.9049,-5.91198E-05
231.0049,-5.908496E-05
231.1049,-5.908213E-05
231.2049,-5.907743E-05
231.3049,-5.90294E-05
231.4049,-5.903505E-05
231.5049,-5.901715E-05
231.6049,-5.895405E-05
231.7049,-5.896818E-05
231.8049,-5.895405E-05
231.905,-5.887307E-05
232.005,-5.889849E-05
232.105,-5.890697E-05
232.205,-5.889473E-05
232.305,-5.885894E-05
232.405,-5.883257E-05
232.505,-5.879961E-05
232.605,-5.877513E-05
232.705,-5.876289E-05
232.805,-5.872333E-05
232.905,-5.870544E-05
233.005,-5.869226E-05
233.105,-5.864988E-05
233.205,-5.866683E-05
233.305,-5.863292E-05
233.405,-5.859054E-05
233.5051,-5.859902E-05
233.6051,-5.860091E-05
233.7051,-5.858113E-05
233.8051,-5.852275E-05
233.9051,-5.851521E-05
234.0051,-5.850297E-05
234.1051,-5.848507E-05
234.2051,-5.847754E-05
234.3051,-5.842198E-05
234.4051,-5.840879E-05
234.5051,-5.840785E-05
234.6051,-5.839278E-05
234.7051,-5.836642E-05
234.8051,-5.832969E-05
234.9051,-5.832309E-05
235.0051,-5.829767E-05
235.1051,-5.829956E-05
235.2052,-5.827695E-05
235.3052,-5.824776E-05
235.4052,-5.824117E-05
235.5052,-5.823552E-05
235.6052,-5.82148E-05
235.7052,-5.816865E-05
235.8052,-5.814888E-05
235.9052,-5.817336E-05
236.0052,-5.816489E-05
236.1052,-5.812251E-05
236.2052,-5.807825E-05
236.3052,-5.808672E-05
236.4052,-5.806318E-05
236.5052,-5.801327E-05
236.6052,-5.802739E-05
236.7052,-5.800856E-05
236.8053,-5.799349E-05
236.9053,-5.797466E-05
237.0053,-5.792004E-05
237.1053,-5.794829E-05
237.2053,-5.795488E-05
237.3053,-5.791344E-05
237.4053,-5.787013E-05
237.5053,-5.784375E-05
237.6053,-5.784375E-05
237.7053,-5.781927E-05
237.8053,-5.781456E-05
237.9053,-5.77816E-05
238.0053,-5.772321E-05
238.1053,-5.774958E-05
238.2053,-5.773357E-05
238.3053,-5.76959E-05
238.4053,-5.769308E-05
238.5054,-5.765729E-05
238.6054,-5.766671E-05
238.7054,-5.766106E-05
238.8054,-5.763186E-05
238.9054,-5.761115E-05
239.0054,-5.759891E-05
239.1054,-5.756218E-05
239.2054,-5.749531E-05
239.3054,-5.751227E-05
239.4054,-5.751603E-05
239.5054,-5.745576E-05
239.6054,-5.744258E-05
239.7054,-5.742845E-05
239.8054,-5.745105E-05
239.9054,-5.749155E-05
240.0054,-5.745859E-05
240.1055,-5.738042E-05
240.2055,-5.736536E-05
240.3055,-5.736347E-05
240.4055,-5.733239E-05
240.5055,-5.732769E-05
240.6055,-5.732486E-05
240.7055,-5.73032E-05
240.8055,-5.72693E-05
240.9055,-5.72806E-05
241.0055,-5.720244E-05
241.1055,-5.721374E-05
241.2055,-5.721185E-05
241.3055,-5.713745E-05
241.4055,-5.71544E-05
241.5055,-5.713087E-05
241.6055,-5.709791E-05
241.7056,-5.708848E-05
241.8056,-5.708754E-05
241.9056,-5.706212E-05
242.0056,-5.703104E-05
242.1056,-5.703481E-05
242.2056,-5.700844E-05
242.3056,-5.70188E-05
242.4056,-5.703575E-05
242.5056,-5.695006E-05
242.6056,-5.694534E-05
242.7056,-5.692463E-05
242.8056,-5.692556E-05
242.9056,-5.689732E-05
243.0056,-5.688037E-05
243.1056,-5.682292E-05
243.2056,-5.682857E-05
243.3056,-5.684929E-05
243.4057,-5.680973E-05
243.5057,-5.675512E-05
243.6057,-5.679749E-05
243.7057,-5.680032E-05
243.8057,-5.674758E-05
243.9057,-5.671085E-05
244.0057,-5.669296E-05
244.1057,-5.669107E-05
244.2057,-5.666565E-05
244.3057,-5.662421E-05
244.4057,-5.659125E-05
244.5057,-5.663363E-05
244.6057,-5.661762E-05
244.7057,-5.657524E-05
244.8057,-5.657619E-05
244.9057,-5.653381E-05
245.0058,-5.650461E-05
245.1058,-5.653945E-05
245.2058,-5.651309E-05
245.3058,-5.648766E-05
245.4058,-5.647072E-05
245.5058,-5.642645E-05
245.6058,-5.641703E-05
245.7058,-5.641797E-05
245.8058,-5.638125E-05
245.9058,-5.635111E-05
246.0058,-5.633039E-05
246.1058,-5.633887E-05
246.2058,-5.62899E-05
246.3058,-5.629084E-05
246.4058,-5.6256E-05
246.5058,-5.622963E-05
246.6059,-5.622398E-05
246.7059,-5.619855E-05
246.8059,-5.616371E-05
246.9059,-5.616747E-05
247.0059,-5.614016E-05
247.1059,-5.612039E-05
247.2059,-5.611944E-05
247.3059,-5.610909E-05
247.4059,-5.605164E-05
247.5059,-5.605635E-05
247.6059,-5.606011E-05
247.7059,-5.602527E-05
247.8059,-5.600738E-05
247.9059,-5.598007E-05
248.0059,-5.597442E-05
248.1059,-5.594052E-05
248.2059,-5.591791E-05
248.306,-5.592357E-05
248.406,-5.590379E-05
248.506,-5.590284E-05
248.606,-5.584069E-05
248.706,-5.585482E-05
248.806,-5.584258E-05
248.906,-5.578984E-05
249.006,-5.578795E-05
249.106,-5.58002E-05
249.206,-5.575594E-05
249.306,-5.57823E-05
249.406,-5.573804E-05
249.506,-5.56919E-05
249.606,-5.568625E-05
249.706,-5.56693E-05
249.806,-5.562503E-05
249.9061,-5.563069E-05
250.0061,-5.560338E-05
250.1061,-5.556194E-05
250.2061,-5.554687E-05
250.3061,-5.5561E-05
250.4061,-5.555158E-05
250.5061,-5.548942E-05
250.6061,-5.552333E-05
250.7061,-5.550544E-05
250.8061,-5.54866E-05
250.9061,-5.544988E-05
251.0061,-5.54075E-05
251.1061,-5.538772E-05
251.2061,-5.539619E-05
251.3061,-5.538772E-05
251.4061,-5.535382E-05
251.5061,-5.532556E-05
251.6062,-5.532651E-05
251.7062,-5.530579E-05
251.8062,-5.528507E-05
251.9062,-5.526059E-05
252.0062,-5.525399E-05
252.1062,-5.525305E-05
252.2062,-5.521162E-05
252.3062,-5.520126E-05
252.4062,-5.51683E-05
252.5062,-5.51504E-05
252.6062,-5.514475E-05
252.7062,-5.513439E-05
252.8062,-5.508166E-05
252.9062,-5.507977E-05
253.0062,-5.506564E-05
253.1062,-5.504493E-05
253.2063,-5.504964E-05
253.3063,-5.502892E-05
253.4063,-5.497712E-05
253.5063,-5.498277E-05
253.6063,-5.498089E-05
253.7063,-5.492627E-05
253.8063,-5.493098E-05
253.9063,-5.491591E-05
254.0063,-5.486977E-05
254.1063,-5.487071E-05
254.2063,-5.483869E-05
254.3063,-5.483304E-05
254.4063,-5.482362E-05
254.5063,-5.481232E-05
254.6063,-5.478596E-05
254.7063,-5.474546E-05
254.8064,-5.472097E-05
254.9064,-5.470967E-05
255.0064,-5.469084E-05
255.1064,-5.468142E-05
255.2064,-5.464469E-05
255.3064,-5.462303E-05
255.4064,-5.462868E-05
255.5064,-5.462209E-05
255.6064,-5.460137E-05
255.7064,-5.456087E-05
255.8064,-5.456465E-05
255.9064,-5.450061E-05
256.0064,-5.453263E-05
256.1064,-5.450814E-05
256.2064,-5.44893E-05
256.3064,-5.448272E-05
256.4064,-5.444599E-05
256.5064,-5.444034E-05
256.6064,-5.440832E-05
256.7065,-5.437724E-05
256.8065,-5.435746E-05
256.9065,-5.436029E-05
257.0065,-5.434711E-05
257.1065,-5.432827E-05
257.2065,-5.42972E-05
257.3065,-5.428119E-05
257.4065,-5.426423E-05
257.5065,-5.426329E-05
257.6065,-5.424352E-05
257.7065,-5.419737E-05
257.8065,-5.420114E-05
257.9065,-5.419643E-05
258.0065,-5.41484E-05
258.1065,-5.415594E-05
258.2065,-5.414652E-05
258.3065,-5.411168E-05
258.4066,-5.410038E-05
258.5066,-5.40806E-05
258.6066,-5.405046E-05
258.7066,-5.402692E-05
258.8066,-5.402974E-05
258.9066,-5.399396E-05
259.0066,-5.399396E-05
259.1066,-5.397512E-05
259.2066,-5.393557E-05
259.3066,-5.392992E-05
259.4066,-5.391956E-05
259.5066,-5.38753E-05
259.6066,-5.390355E-05
259.7066,-5.3864E-05
259.8066,-5.381785E-05
259.9066,-5.383857E-05
260.0067,-5.384799E-05
260.1067,-5.379996E-05
260.2067,-5.377359E-05
260.3067,-5.376983E-05
260.4067,-5.37152E-05
260.5067,-5.373215E-05
260.6067,-5.372274E-05
260.7067,-5.366718E-05
260.8067,-5.368601E-05
260.9067,-5.367565E-05
261.0067,-5.363516E-05
261.1067,-5.363892E-05
261.2067,-5.36135E-05
261.3067,-5.358242E-05
261.4067,-5.359561E-05
261.5067,-5.362197E-05
261.6068,-5.354663E-05
261.7068,-5.354287E-05
261.8068,-5.352686E-05
261.9068,-5.350331E-05
262.0068,-5.350802E-05
262.1068,-5.349107E-05
262.2068,-5.346188E-05
262.3068,-5.344022E-05
262.4068,-5.344681E-05
262.5068,-5.341479E-05
262.6068,-5.340443E-05
262.7068,-5.336394E-05
262.8068,-5.331591E-05
262.9068,-5.334322E-05
263.0068,-5.336394E-05
263.1068,-5.330273E-05
263.2068,-5.329519E-05
263.3069,-5.328484E-05
263.4069,-5.326788E-05
263.5069,-5.326882E-05
263.6069,-5.323115E-05
263.7069,-5.320196E-05
263.8069,-5.318501E-05
263.9069,-5.319725E-05
264.0069,-5.316053E-05
264.1069,-5.315958E-05
264.2069,-5.318596E-05
264.3069,-5.31238E-05
264.4069,-5.312662E-05
264.5069,-5.313133E-05
264.6069,-5.309743E-05
264.7069,-5.307012E-05
264.8069,-5.306165E-05
264.907,-5.305599E-05
265.007,-5.305976E-05
265.107,-5.307012E-05
265.207,-5.303622E-05
265.307,-5.305222E-05
265.407,-5.30833E-05
265.507,-5.302303E-05
265.607,-5.299008E-05
265.707,-5.300514E-05
265.807,-5.295429E-05
265.907,-5.292886E-05
266.007,-5.298536E-05
266.107,-5.29524E-05
266.207,-5.287235E-05
266.307,-5.293922E-05
266.407,-5.293263E-05
266.507,-5.289119E-05
266.6071,-5.290532E-05
266.7071,-5.286011E-05
266.8071,-5.284128E-05
266.9071,-5.287141E-05
267.0071,-5.286859E-05
267.1071,-5.280455E-05
267.2071,-5.280361E-05
267.3071,-5.281209E-05
267.4071,-5.279702E-05
267.5071,-5.280549E-05
267.6071,-5.279231E-05
267.7071,-5.273675E-05
267.8071,-5.276877E-05
267.9071,-5.276406E-05
268.0071,-5.274146E-05
268.1071,-5.271603E-05
268.2072,-5.272545E-05
268.3072,-5.267365E-05
268.4072,-5.267836E-05
268.5072,-5.266517E-05
268.6072,-5.265858E-05
268.7072,-5.267742E-05
268.8072,-5.262185E-05
268.9072,-5.26341E-05
269.0072,-5.266989E-05
269.1072,-5.264069E-05
269.2072,-5.260679E-05
269.3072,-5.261055E-05
269.4072,-5.256347E-05
269.5072,-5.25531E-05
269.6072,-5.254746E-05
269.7072,-5.25258E-05
269.8073,-5.249472E-05
269.9073,-5.248342E-05
270.0073,-5.251827E-05
270.1073,-5.245328E-05
270.2073,-5.245611E-05
270.3073,-5.24401E-05
270.4073,-5.244293E-05
270.5073,-5.243727E-05
270.6073,-5.242221E-05
270.7073,-5.239396E-05
270.8073,-5.237041E-05
270.9073,-5.23723E-05
271.0073,-5.23544E-05
271.1073,-5.233934E-05
271.2073,-5.231485E-05
271.3073,-5.228943E-05
271.4073,-5.229413E-05
271.5074,-5.230073E-05
271.6074,-5.227718E-05
271.7074,-5.224987E-05
271.8074,-5.224139E-05
271.9074,-5.224799E-05
272.0074,-5.221314E-05
272.1074,-5.220938E-05
272.2074,-5.218677E-05
272.3074,-5.218489E-05
272.4074,-5.218677E-05
272.5074,-5.213027E-05
272.6074,-5.215476E-05
272.7074,-5.214345E-05
272.8074,-5.210391E-05
272.9074,-5.212368E-05
273.0074,-5.211238E-05
273.1075,-5.20587E-05
273.2075,-5.20474E-05
273.3075,-5.204834E-05
273.4075,-5.203516E-05
273.5075,-5.203045E-05
273.6075,-5.202856E-05
273.7075,-5.200973E-05
273.8075,-5.19617E-05
273.9075,-5.197771E-05
274.0075,-5.197394E-05
274.1075,-5.194475E-05
274.2075,-5.195699E-05
274.3075,-5.192403E-05
274.4075,-5.188071E-05
274.5075,-5.188919E-05
274.6075,-5.186659E-05
274.7076,-5.184022E-05
274.8076,-5.183551E-05
274.9076,-5.182327E-05
275.0076,-5.182044E-05
275.1076,-5.178466E-05
275.2076,-5.17677E-05
275.3076,-5.173851E-05
275.4076,-5.174604E-05
275.5076,-5.172156E-05
275.6076,-5.171026E-05
275.7076,-5.17112E-05
275.8076,-5.167918E-05
275.9076,-5.165846E-05
276.0076,-5.165846E-05
276.1076,-5.165846E-05
276.2076,-5.163021E-05
276.3076,-5.161138E-05
276.4077,-5.163774E-05
276.5077,-5.159819E-05
276.6077,-5.158218E-05
276.7077,-5.15577E-05
276.8077,-5.153039E-05
276.9077,-5.154263E-05
277.0077,-5.155299E-05
277.1077,-5.149178E-05
277.2077,-5.148707E-05
277.3077,-5.147671E-05
277.4077,-5.143527E-05
277.5077,-5.145222E-05
277.6077,-5.14494E-05
277.7077,-5.140702E-05
277.8077,-5.14089E-05
277.9077,-5.142303E-05
278.0078,-5.135711E-05
278.1078,-5.133168E-05
278.2078,-5.132886E-05
278.3078,-5.131473E-05
278.4078,-5.130814E-05
278.5078,-5.130908E-05
278.6078,-5.127423E-05
278.7078,-5.124316E-05
278.8078,-5.12554E-05
278.9078,-5.124128E-05
279.0078,-5.122903E-05
279.1078,-5.121867E-05
279.2078,-5.119702E-05
279.3078,-5.118477E-05
279.4078,-5.117818E-05
279.5078,-5.11584E-05
279.6078,-5.110284E-05
279.7079,-5.116594E-05
279.8079,-5.11358E-05
279.9079,-5.107835E-05
280.0079,-5.106988E-05
280.1079,-5.105482E-05
280.2079,-5.100961E-05
280.3079,-5.104916E-05
280.4079,-5.101997E-05
280.5079,-5.0971E-05
280.6079,-5.096064E-05
280.7079,-5.095687E-05
280.8079,-5.092203E-05
280.9079,-5.09305E-05
281.0079,-5.091073E-05
281.1079,-5.088719E-05
281.2079,-5.089849E-05
281.308,-5.087871E-05
281.408,-5.085328E-05
281.508,-5.082409E-05
281.608,-5.082692E-05
281.708,-5.077794E-05
281.808,-5.080996E-05
281.908,-5.077324E-05
282.008,-5.073839E-05
282.108,-5.07657E-05
282.208,-5.072803E-05
282.308,-5.071296E-05
282.408,-5.072615E-05
282.508,-5.068754E-05
282.608,-5.065552E-05
282.708,-5.066682E-05
282.808,-5.065081E-05
282.9081,-5.061974E-05
283.0081,-5.061691E-05
283.1081,-5.059996E-05
283.2081,-5.057453E-05
283.3081,-5.055758E-05
283.4081,-5.056511E-05
283.5081,-5.052744E-05
283.6081,-5.050107E-05
283.7081,-5.049919E-05
283.8081,-5.047471E-05
283.9081,-5.048695E-05
284.0081,-5.045775E-05
284.1081,-5.043421E-05
284.2081,-5.041726E-05
284.3081,-5.040973E-05
284.4081,-5.039184E-05
284.5081,-5.039937E-05
284.6082,-5.038524E-05
284.7082,-5.03391E-05
284.8082,-5.035981E-05
284.9082,-5.035322E-05
285.0082,-5.030802E-05
285.1082,-5.028919E-05
285.2082,-5.029955E-05
285.3082,-5.028824E-05
285.4082,-5.023174E-05
285.5082,-5.026941E-05
285.6082,-5.025057E-05
285.7082,-5.025434E-05
285.8082,-5.021102E-05
285.9082,-5.018183E-05
286.0082,-5.018466E-05
286.1082,-5.017429E-05
286.2083,-5.014133E-05
286.3083,-5.013662E-05
286.4083,-5.013851E-05
286.5083,-5.011026E-05
286.6083,-5.011779E-05
286.7083,-5.009236E-05
286.8083,-5.005846E-05
286.9083,-5.006317E-05
287.0083,-5.005752E-05
287.1083,-5.001702E-05
287.2083,-5.00142E-05
287.3083,-4.999631E-05
287.4083,-4.996052E-05
287.5083,-4.998595E-05
287.6083,-4.998689E-05
287.7083,-4.993321E-05
287.8083,-4.992756E-05
287.9084,-4.990496E-05
288.0084,-4.989554E-05
288.1084,-4.992191E-05
288.2084,-4.987483E-05
288.3084,-4.984846E-05
288.4084,-4.983716E-05
288.5084,-4.985975E-05
288.6084,-4.981644E-05
288.7084,-4.980702E-05
288.8084,-4.978913E-05
288.9084,-4.975522E-05
289.0084,-4.977783E-05
289.1084,-4.978913E-05
289.2084,-4.972885E-05
289.3084,-4.973451E-05
289.4084,-4.972791E-05
289.5085,-4.968931E-05
289.6085,-4.971567E-05
289.7085,-4.969684E-05
289.8085,-4.966764E-05
289.9085,-4.963374E-05
290.0085,-4.964598E-05
290.1085,-4.96102E-05
290.2085,-4.959607E-05
290.3085,-4.960925E-05
290.4085,-4.956876E-05
290.5085,-4.956405E-05
290.6085,-4.958195E-05
290.7085,-4.951885E-05
290.8085,-4.953015E-05
290.9085,-4.950943E-05
291.0085,-4.949342E-05
291.1086,-4.950755E-05
291.2086,-4.948024E-05
291.3086,-4.944916E-05
291.4086,-4.941337E-05
291.5086,-4.945575E-05
291.6086,-4.941337E-05
291.7086,-4.939643E-05
291.8086,-4.940113E-05
291.9086,-4.937382E-05
292.0086,-4.935499E-05
292.1086,-4.935593E-05
292.2086,-4.933709E-05
292.3086,-4.932109E-05
292.4086,-4.933521E-05
292.5086,-4.931826E-05
292.6086,-4.930508E-05
292.7086,-4.928436E-05
292.8087,-4.926741E-05
292.9087,-4.924386E-05
293.0087,-4.922691E-05
293.1087,-4.922314E-05
293.2087,-4.919772E-05
293.3087,-4.922598E-05
293.4087,-4.919113E-05
293.5087,-4.91318E-05
293.6087,-4.914404E-05
293.7087,-4.914498E-05
293.8087,-4.913839E-05
293.9087,-4.910355E-05
294.0087,-4.90913E-05
294.1087,-4.906211E-05
294.2087,-4.90753E-05
294.3087,-4.908942E-05
294.4088,-4.903951E-05
294.5088,-4.901879E-05
294.6088,-4.902538E-05
294.7088,-4.902444E-05
294.8088,-4.901973E-05
294.9088,-4.899242E-05
295.0088,-4.896794E-05
295.1088,-4.897076E-05
295.2088,-4.89783E-05
295.3088,-4.892744E-05
295.4088,-4.892273E-05
295.5088,-4.892179E-05
295.6088,-4.887E-05
295.7088,-4.893121E-05
295.8088,-4.887847E-05
295.9088,-4.88361E-05
296.0089,-4.885022E-05
296.1089,-4.884457E-05
296.2089,-4.882197E-05
296.3089,-4.883421E-05
296.4089,-4.881349E-05
296.5089,-4.878618E-05
296.6089,-4.878053E-05
296.7089,-4.877771E-05
296.8089,-4.87617E-05
296.9089,-4.874852E-05
297.0089,-4.876641E-05
297.1089,-4.872968E-05
297.2089,-4.871461E-05
297.3089,-4.869954E-05
297.4089,-4.868071E-05
297.5089,-4.868353E-05
297.6089,-4.866564E-05
297.709,-4.864963E-05
297.809,-4.861667E-05
297.909,-4.862703E-05
298.009,-4.863079E-05
298.109,-4.863174E-05
298.209,-4.860914E-05
298.309,-4.856205E-05
298.409,-4.857429E-05
298.509,-4.857618E-05
298.609,-4.858089E-05
298.709,-4.856299E-05
298.809,-4.854322E-05
298.909,-4.853662E-05
299.009,-4.851496E-05
299.109,-4.852344E-05
299.209,-4.848954E-05
299.3091,-4.849424E-05
299.4091,-4.848106E-05
299.5091,-4.847071E-05
299.6091,-4.848012E-05
299.7091,-4.846223E-05
299.8091,-4.843491E-05
299.9091,-4.842738E-05
300.0091,-4.840667E-05
300.1091,-4.843303E-05
300.2091,-4.839442E-05
300.3091,-4.841326E-05
300.4091,-4.838783E-05
300.5091,-4.837465E-05
300.6091,-4.837465E-05
300.7091,-4.838595E-05
300.8091,-4.835016E-05
300.9091,-4.834734E-05
301.0092,-4.833227E-05
301.1092,-4.831532E-05
301.2092,-4.828518E-05
301.3092,-4.826352E-05
301.4092,-4.829742E-05
301.5092,-4.833415E-05
301.6092,-4.831249E-05
301.7092,-4.829742E-05
301.8092,-4.826446E-05
301.9092,-4.823527E-05
302.0092,-4.823715E-05
302.1092,-4.825599E-05
302.2092,-4.822302E-05
302.3092,-4.818441E-05
302.4092,-4.819478E-05
302.5092,-4.819854E-05
302.6093,-4.815428E-05
302.7093,-4.815051E-05
302.8093,-4.817123E-05
302.9093,-4.814486E-05
303.0093,-4.812885E-05
303.1093,-4.814392E-05
303.2093,-4.815334E-05
303.3093,-4.812603E-05
303.4093,-4.810908E-05
303.5093,-4.810154E-05
303.6093,-4.806294E-05
303.7093,-4.809025E-05
303.8093,-4.80959E-05
303.9093,-4.806011E-05
304.0093,-4.804599E-05
304.1093,-4.803845E-05
304.2094,-4.802621E-05
304.3094,-4.80441E-05
304.4094,-4.800078E-05
304.5094,-4.79923E-05
304.6094,-4.80215E-05
304.7094,-4.80667E-05
304.8094,-4.800549E-05
304.9094,-4.798289E-05
305.0094,-4.801208E-05
305.1094,-4.798665E-05
305.2094,-4.797912E-05
305.3094,-4.797818E-05
305.4094,-4.793863E-05
305.5094,-4.793297E-05
305.6094,-4.792356E-05
305.7094,-4.795652E-05
305.8094,-4.798383E-05
305.9095,-4.793863E-05
306.0095,-4.790849E-05
306.1095,-4.791696E-05
306.2095,-4.791414E-05
306.3095,-4.789719E-05
306.4095,-4.786988E-05
306.5095,-4.786894E-05
306.6095,-4.781526E-05
306.7095,-4.783786E-05
306.8095,-4.784351E-05
306.9095,-4.780207E-05
307.0095,-4.781808E-05
307.1095,-4.781997E-05
307.2095,-4.779925E-05
307.3095,-4.779642E-05
307.4095,-4.778606E-05
307.5096,-4.775499E-05
307.6096,-4.77823E-05
307.7096,-4.778136E-05
307.8096,-4.77418E-05
307.9096,-4.774368E-05
308.0096,-4.775499E-05
308.1096,-4.776064E-05
308.2096,-4.776723E-05
308.3096,-4.774368E-05
308.4096,-4.771637E-05
308.5096,-4.773709E-05
308.6096,-4.773898E-05
308.7096,-4.770696E-05
308.8096,-4.769189E-05
308.9096,-4.769471E-05
309.0096,-4.765516E-05
309.1096,-4.767682E-05
309.2097,-4.766929E-05
309.3097,-4.76222E-05
309.4097,-4.761279E-05
309.5097,-4.764292E-05
309.6097,-4.761844E-05
309.7097,-4.760148E-05
309.8097,-4.75996E-05
309.9097,-4.760243E-05
310.0097,-4.757888E-05
310.1097,-4.760148E-05
310.2097,-4.755722E-05
310.3097,-4.75591E-05
310.4097,-4.75544E-05
310.5097,-4.754216E-05
310.6097,-4.756005E-05
310.7097,-4.752897E-05
310.8098,-4.749884E-05
310.9098,-4.753462E-05
311.0098,-4.752614E-05
311.1098,-4.751579E-05
311.2098,-4.749695E-05
311.3098,-4.747906E-05
311.4098,-4.747341E-05
311.5098,-4.749224E-05
311.6098,-4.748377E-05
311.7098,-4.739995E-05
311.8098,-4.743668E-05
311.9098,-4.745363E-05
312.0098,-4.743762E-05
312.1098,-4.741408E-05
312.2098,-4.739336E-05
312.3098,-4.739524E-05
312.4099,-4.739054E-05
312.5099,-4.73717E-05
312.6099,-4.736323E-05
312.7099,-4.734439E-05
312.8099,-4.736041E-05
312.9099,-4.735004E-05
313.0099,-4.735381E-05
313.1099,-4.732838E-05
313.2099,-4.731708E-05
313.3099,-4.732462E-05
313.4099,-4.733027E-05
313.5099,-4.728883E-05
313.6099,-4.726434E-05
313.7099,-4.729072E-05
313.8099,-4.725869E-05
313.9099,-4.728977E-05
314.0099,-4.729165E-05
314.11,-4.725775E-05
314.21,-4.721443E-05
314.31,-4.724739E-05
314.41,-4.721255E-05
314.51,-4.718524E-05
314.61,-4.718807E-05
314.71,-4.718618E-05
314.81,-4.716829E-05
314.91,-4.717959E-05
315.01,-4.717205E-05
315.11,-4.712591E-05
315.21,-4.716358E-05
315.31,-4.713815E-05
315.41,-4.711744E-05
315.51,-4.71212E-05
315.61,-4.71099E-05
315.7101,-4.710708E-05
315.8101,-4.709106E-05
315.9101,-4.706846E-05
316.0101,-4.707694E-05
316.1101,-4.710142E-05
316.2101,-4.706753E-05
316.3101,-4.701667E-05
316.4101,-4.703079E-05
316.5101,-4.704587E-05
316.6101,-4.702232E-05
316.7101,-4.702232E-05
316.8101,-4.700349E-05
316.9101,-4.699312E-05
317.0101,-4.700349E-05
317.1101,-4.698747E-05
317.2101,-4.696205E-05
317.3102,-4.695263E-05
317.4102,-4.694415E-05
317.5102,-4.69564E-05
317.6102,-4.693945E-05
317.7102,-4.69159E-05
317.8102,-4.688954E-05
317.9102,-4.692061E-05
318.0102,-4.692626E-05
318.1102,-4.684622E-05
318.2102,-4.687164E-05
318.3102,-4.687729E-05
318.4102,-4.685375E-05
318.5102,-4.686788E-05
318.6102,-4.687541E-05
318.7102,-4.680101E-05
318.8102,-4.682079E-05
318.9102,-4.68594E-05
319.0103,-4.678971E-05
319.1103,-4.681796E-05
319.2103,-4.679819E-05
319.3103,-4.680855E-05
319.4103,-4.681231E-05
319.5103,-4.681608E-05
319.6103,-4.675016E-05
319.7103,-4.673133E-05
319.8103,-4.675864E-05
319.9103,-4.673697E-05
320.0103,-4.675581E-05
320.1103,-4.673697E-05
320.2103,-4.672379E-05
320.3103,-4.668989E-05
320.4103,-4.671531E-05
320.5103,-4.668518E-05
320.6104,-4.666634E-05
320.7104,-4.665222E-05
320.8104,-4.664845E-05
320.9104,-4.664375E-05
321.0104,-4.665033E-05
321.1104,-4.661549E-05
321.2104,-4.658253E-05
321.3104,-4.662302E-05
321.4104,-4.659289E-05
321.5104,-4.658819E-05
321.6104,-4.660796E-05
321.7104,-4.657688E-05
321.8104,-4.656558E-05
321.9104,-4.656746E-05
322.0104,-4.654486E-05
322.1104,-4.654581E-05
322.2104,-4.656276E-05
322.3105,-4.653921E-05
322.4105,-4.653827E-05
322.5105,-4.652226E-05
322.6105,-4.649777E-05
322.7105,-4.649872E-05
322.8105,-4.649118E-05
322.9105,-4.648553E-05
323.0105,-4.647988E-05
323.1105,-4.645163E-05
323.2105,-4.644504E-05
323.3105,-4.643845E-05
323.4105,-4.646199E-05
323.5105,-4.642244E-05
323.6105,-4.642714E-05
323.7105,-4.641584E-05
323.8105,-4.63923E-05
323.9106,-4.637347E-05
324.0106,-4.639795E-05
324.1106,-4.639889E-05
324.2106,-4.636311E-05
324.3106,-4.634333E-05
324.4106,-4.633768E-05
324.5106,-4.633014E-05
324.6106,-4.637252E-05
324.7106,-4.632638E-05
324.8106,-4.631226E-05
324.9106,-4.629625E-05
325.0106,-4.631037E-05
325.1106,-4.627929E-05
325.2106,-4.627929E-05
325.3106,-4.626988E-05
325.4106,-4.627929E-05
325.5107,-4.626893E-05
325.6107,-4.62275E-05
325.7107,-4.619077E-05
325.8107,-4.620961E-05
325.9107,-4.620772E-05
326.0107,-4.616252E-05
326.1107,-4.620019E-05
326.2107,-4.616817E-05
326.3107,-4.614839E-05
326.4107,-4.617382E-05
326.5107,-4.616817E-05
326.6107,-4.615216E-05
326.7107,-4.615311E-05
326.8107,-4.61258E-05
326.9107,-4.609942E-05
327.0107,-4.609566E-05
327.1107,-4.611073E-05
327.2108,-4.606458E-05
327.3108,-4.606081E-05
327.4108,-4.605328E-05
327.5108,-4.601467E-05
327.6108,-4.602879E-05
327.7108,-4.60448E-05
327.8108,-4.597888E-05
327.9108,-4.601749E-05
328.0108,-4.602785E-05
328.1108,-4.595628E-05
328.2108,-4.597606E-05
328.3108,-4.596381E-05
328.4108,-4.594215E-05
328.5108,-4.593556E-05
328.6108,-4.59431E-05
328.7108,-4.592144E-05
328.8109,-4.589978E-05
328.9109,-4.594498E-05
329.0109,-4.592426E-05
329.1109,-4.588753E-05
329.2109,-4.587246E-05
329.3109,-4.586681E-05
329.4109,-4.583668E-05
329.5109,-4.58461E-05
329.6109,-4.580749E-05
329.7109,-4.581314E-05
329.8109,-4.581785E-05
329.9109,-4.57943E-05
330.0109,-4.576605E-05
330.1109,-4.576417E-05
330.2109,-4.579054E-05
330.3109,-4.575852E-05
330.4109,-4.576323E-05
330.511,-4.573686E-05
330.611,-4.569825E-05
330.711,-4.571991E-05
330.811,-4.571614E-05
330.911,-4.569636E-05
331.011,-4.567753E-05
331.111,-4.565492E-05
331.211,-4.56521E-05
331.311,-4.565775E-05
331.411,-4.566152E-05
331.511,-4.562008E-05
331.611,-4.561255E-05
331.711,-4.56069E-05
331.811,-4.558806E-05
331.911,-4.560408E-05
332.011,-4.558618E-05
332.1111,-4.555039E-05
332.2111,-4.557299E-05
332.3111,-4.558053E-05
332.4111,-4.554192E-05
332.5111,-4.554663E-05
332.6111,-4.554569E-05
332.7111,-4.549483E-05
332.8111,-4.550048E-05
332.9111,-4.551178E-05
333.0111,-4.546941E-05
333.1111,-4.5476E-05
333.2111,-4.545246E-05
333.3111,-4.542515E-05
333.4111,-4.54355E-05
333.5111,-4.542043E-05
333.6111,-4.541102E-05
333.7112,-4.540631E-05
333.8112,-4.545057E-05
333.9112,-4.543268E-05
334.0112,-4.54242E-05
334.1112,-4.540066E-05
334.2112,-4.537052E-05
334.3112,-4.539124E-05
334.4112,-4.538182E-05
334.5112,-4.533285E-05
334.6112,-4.531779E-05
334.7112,-4.533851E-05
334.8112,-4.53272E-05
334.9112,-4.530272E-05
335.0112,-4.531214E-05
335.1112,-4.528577E-05
335.2112,-4.529989E-05
335.3112,-4.529424E-05
335.4113,-4.525375E-05
335.5113,-4.526316E-05
335.6113,-4.525092E-05
335.7113,-4.523115E-05
335.8113,-4.525281E-05
335.9113,-4.522361E-05
336.0113,-4.522832E-05
336.1113,-4.519725E-05
336.2113,-4.525846E-05
336.3113,-4.527164E-05
336.4113,-4.521043E-05
336.5113,-4.52302E-05
336.6113,-4.52255E-05
336.7113,-4.518029E-05
336.8113,-4.521702E-05
336.9113,-4.521702E-05
337.0114,-4.516334E-05
337.1114,-4.519725E-05
337.2114,-4.519348E-05
337.3114,-4.51398E-05
337.4114,-4.515204E-05
337.5114,-4.511814E-05
337.6114,-4.512567E-05
337.7114,-4.518783E-05
337.8114,-4.517276E-05
337.9114,-4.509554E-05
338.0114,-4.510401E-05
338.1114,-4.512002E-05
338.2114,-4.511343E-05
338.3114,-4.513886E-05
338.4114,-4.509459E-05
338.5114,-4.505693E-05
338.6115,-4.508801E-05
338.7115,-4.512379E-05
338.8115,-4.507953E-05
338.9115,-4.507388E-05
339.0115,-4.508329E-05
339.1115,-4.505975E-05
339.2115,-4.508989E-05
339.3115,-4.505316E-05
339.4115,-4.505033E-05
339.5115,-4.505504E-05
339.6115,-4.507388E-05
339.7115,-4.505033E-05
339.8115,-4.504468E-05
339.9115,-4.504563E-05
340.0115,-4.503056E-05
340.1115,-4.504751E-05
340.2115,-4.504657E-05
340.3116,-4.502773E-05
340.4116,-4.503997E-05
340.5116,-4.507388E-05
340.6116,-4.503715E-05
340.7116,-4.498253E-05
340.8116,-4.506258E-05
340.9116,-4.502585E-05
341.0116,-4.503621E-05
341.1116,-4.500607E-05
341.2116,-4.503056E-05
341.3116,-4.500795E-05
341.4116,-4.501738E-05
341.5116,-4.499572E-05
341.6116,-4.501266E-05
341.7116,-4.500419E-05
341.8116,-4.497217E-05
341.9117,-4.497782E-05
342.0117,-4.500136E-05
342.1117,-4.498253E-05
342.2117,-4.497688E-05
342.3117,-4.496464E-05
342.4117,-4.496934E-05
342.5117,-4.497782E-05
342.6117,-4.498536E-05
342.7117,-4.492885E-05
342.8117,-4.493827E-05
342.9117,-4.495804E-05
343.0117,-4.493168E-05
343.1117,-4.490908E-05
343.2117,-4.491096E-05
343.3117,-4.492603E-05
343.4117,-4.491849E-05
343.5117,-4.492508E-05
343.6118,-4.489589E-05
343.7118,-4.485539E-05
343.8118,-4.491096E-05
343.9118,-4.489683E-05
344.0118,-4.487517E-05
344.1118,-4.485634E-05
344.2118,-4.485539E-05
344.3118,-4.484504E-05
344.4118,-4.486858E-05
344.5118,-4.484409E-05
344.6118,-4.482243E-05
344.7118,-4.482432E-05
344.8118,-4.482526E-05
344.9118,-4.481584E-05
345.0118,-4.480737E-05
345.1118,-4.479607E-05
345.2119,-4.477441E-05
345.3119,-4.477441E-05
345.4119,-4.477441E-05
345.5119,-4.476028E-05
345.6119,-4.474992E-05
345.7119,-4.47292E-05
345.8119,-4.473862E-05
345.9119,-4.474239E-05
346.0119,-4.472261E-05
346.1119,-4.469719E-05
346.2119,-4.470377E-05
346.3119,-4.471602E-05
346.4119,-4.470189E-05
346.5119,-4.470849E-05
346.6119,-4.468494E-05
346.7119,-4.466988E-05
346.812,-4.467929E-05
346.912,-4.46614E-05
347.012,-4.464445E-05
347.112,-4.465387E-05
347.212,-4.465951E-05
347.312,-4.462279E-05
347.412,-4.461431E-05
347.512,-4.460207E-05
347.612,-4.458606E-05
347.712,-4.461055E-05
347.812,-4.458418E-05
347.912,-4.455028E-05
348.012,-4.456817E-05
348.112,-4.457287E-05
348.212,-4.454463E-05
348.312,-4.455781E-05
348.412,-4.450695E-05
348.5121,-4.44787E-05
348.6121,-4.45079E-05
348.7121,-4.450036E-05
348.8121,-4.44853E-05
348.9121,-4.447964E-05
349.0121,-4.44787E-05
349.1121,-4.448059E-05
349.2121,-4.447211E-05
349.3121,-4.445328E-05
349.4121,-4.443444E-05
349.5121,-4.442314E-05
349.6121,-4.441655E-05
349.7121,-4.439678E-05
349.8121,-4.442785E-05
349.9121,-4.440525E-05
350.0121,-4.438453E-05
350.1122,-4.43704E-05
350.2122,-4.436475E-05
350.3122,-4.437794E-05
350.4122,-4.433556E-05
350.5122,-4.435722E-05
350.6122,-4.432897E-05
350.7122,-4.432332E-05
350.8122,-4.433839E-05
350.9122,-4.431202E-05
351.0122,-4.431296E-05
351.1122,-4.427999E-05
351.2122,-4.428471E-05
351.3122,-4.427717E-05
351.4122,-4.428659E-05
351.5122,-4.428094E-05
351.6122,-4.421596E-05
351.7122,-4.424327E-05
351.8123,-4.423668E-05
351.9123,-4.422726E-05
352.0123,-4.422067E-05
352.1123,-4.420278E-05
352.2123,-4.418112E-05
352.3123,-4.418017E-05
352.4123,-4.417076E-05
352.5123,-4.41491E-05
352.6123,-4.415381E-05
352.7123,-4.41717E-05
352.8123,-4.415098E-05
352.9123,-4.412932E-05
353.0123,-4.412085E-05
353.1123,-4.41199E-05
353.2123,-4.414439E-05
353.3123,-4.408035E-05
353.4124,-4.407376E-05
353.5124,-4.413968E-05
353.6124,-4.413309E-05
353.7124,-4.404739E-05
353.8124,-4.404362E-05
353.9124,-4.406152E-05
354.0124,-4.405022E-05
354.1124,-4.404457E-05
354.2124,-4.402196E-05
354.3124,-4.397205E-05
354.4124,-4.401914E-05
354.5124,-4.401161E-05
354.6124,-4.395887E-05
354.7124,-4.396546E-05
354.8124,-4.397865E-05
354.9124,-4.395322E-05
355.0125,-4.395981E-05
355.1125,-4.392497E-05
355.2125,-4.391743E-05
355.3125,-4.391554E-05
355.4125,-4.392591E-05
355.5125,-4.390801E-05
355.6125,-4.387882E-05
355.7125,-4.389671E-05
355.8125,-4.391838E-05
355.9125,-4.391461E-05
356.0125,-4.386846E-05
356.1125,-4.385622E-05
356.2125,-4.387034E-05
356.3125,-4.386281E-05
356.4125,-4.383644E-05
356.5125,-4.382043E-05
356.6125,-4.383079E-05
356.7126,-4.379407E-05
356.8126,-4.385151E-05
356.9126,-4.384869E-05
357.0126,-4.377146E-05
357.1126,-4.379783E-05
357.2126,-4.380913E-05
357.3126,-4.374698E-05
357.4126,-4.375546E-05
357.5126,-4.377617E-05
357.6126,-4.374792E-05
357.7126,-4.373851E-05
357.8126,-4.373285E-05
357.9126,-4.371025E-05
358.0126,-4.370272E-05
358.1126,-4.372626E-05
358.2126,-4.371119E-05
358.3127,-4.368765E-05
358.4127,-4.369142E-05
358.5127,-4.36867E-05
358.6127,-4.366882E-05
358.7127,-4.368859E-05
358.8127,-4.367635E-05
358.9127,-4.36594E-05
359.0127,-4.364998E-05
359.1127,-4.36481E-05
359.2127,-4.363115E-05
359.3127,-4.363021E-05
359.4127,-4.363021E-05
359.5127,-4.36594E-05
359.6127,-4.363585E-05
359.7127,-4.361608E-05
359.8127,-4.359065E-05
359.9128,-4.360572E-05
360.0128,-4.35737E-05
360.1128,-4.358218E-05
360.2128,-4.357088E-05
360.3128,-4.354921E-05
360.4128,-4.354827E-05
360.5128,-4.357181E-05
360.6128,-4.353509E-05
360.7128,-4.35219E-05
360.8128,-4.350966E-05
360.9128,-4.352096E-05
361.0128,-4.350401E-05
361.1128,-4.348801E-05
361.2128,-4.348235E-05
361.3128,-4.346634E-05
361.4128,-4.347764E-05
361.5128,-4.348047E-05
361.6129,-4.344092E-05
361.7129,-4.343903E-05
361.8129,-4.343997E-05
361.9129,-4.34362E-05
362.0129,-4.340795E-05
362.1129,-4.34202E-05
362.2129,-4.345222E-05
362.3129,-4.345881E-05
362.4129,-4.340701E-05
362.5129,-4.335616E-05
362.6129,-4.338253E-05
362.7129,-4.341078E-05
362.8129,-4.338535E-05
362.9129,-4.338347E-05
363.0129,-4.334769E-05
363.1129,-4.334486E-05
363.213,-4.335522E-05
363.313,-4.333544E-05
363.413,-4.3294E-05
363.513,-4.332037E-05
363.613,-4.337028E-05
363.713,-4.333168E-05
363.813,-4.333827E-05
363.913,-4.331755E-05
364.013,-4.329118E-05
364.113,-4.332791E-05
364.213,-4.332037E-05
364.313,-4.326199E-05
364.413,-4.326293E-05
364.513,-4.327612E-05
364.613,-4.325917E-05
364.713,-4.324409E-05
364.813,-4.323374E-05
364.9131,-4.321679E-05
365.0131,-4.324127E-05
365.1131,-4.322902E-05
365.2131,-4.320454E-05
365.3131,-4.319513E-05
365.4131,-4.316593E-05
365.5131,-4.317441E-05
365.6131,-4.320548E-05
365.7131,-4.319607E-05
365.8131,-4.315369E-05
365.9131,-4.315651E-05
366.0131,-4.316593E-05
366.1131,-4.313579E-05
366.2131,-4.314238E-05
366.3131,-4.316593E-05
366.4131,-4.31066E-05
366.5132,-4.309059E-05
366.6132,-4.314333E-05
366.7132,-4.310283E-05
366.8132,-4.309342E-05
366.9132,-4.312261E-05
367.0132,-4.309247E-05
367.1132,-4.305198E-05
367.2132,-4.308494E-05
367.3132,-4.307458E-05
367.4132,-4.307741E-05
367.5132,-4.307081E-05
367.6132,-4.305481E-05
367.7132,-4.307081E-05
367.8132,-4.305858E-05
367.9132,-4.301996E-05
368.0132,-4.301996E-05
368.1133,-4.306422E-05
368.2133,-4.303032E-05
368.3133,-4.298889E-05
368.4133,-4.300584E-05
368.5133,-4.300112E-05
368.6133,-4.296911E-05
368.7133,-4.29983E-05
368.8133,-4.297853E-05
368.9133,-4.294745E-05
369.0133,-4.296251E-05
369.1133,-4.298417E-05
369.2133,-4.29418E-05
369.3133,-4.295404E-05
369.4133,-4.294745E-05
369.5133,-4.291355E-05
369.6133,-4.294556E-05
369.7133,-4.293803E-05
369.8134,-4.288623E-05
369.9134,-4.291072E-05
370.0134,-4.292202E-05
370.1134,-4.290978E-05
370.2134,-4.291449E-05
370.3134,-4.287682E-05
370.4134,-4.287023E-05
370.5134,-4.285893E-05
370.6134,-4.287588E-05
370.7134,-4.286835E-05
370.8134,-4.284103E-05
370.9134,-4.285045E-05
371.0134,-4.282597E-05
371.1134,-4.284009E-05
371.2134,-4.282973E-05
371.3134,-4.282597E-05
371.4135,-4.279959E-05
371.5135,-4.280054E-05
371.6135,-4.2793E-05
371.7135,-4.283632E-05
371.8135,-4.279206E-05
371.9135,-4.276193E-05
372.0135,-4.276381E-05
372.1135,-4.276381E-05
372.2135,-4.275345E-05
372.3135,-4.27591E-05
372.4135,-4.275534E-05
372.5135,-4.279771E-05
372.6135,-4.280996E-05
372.7135,-4.277135E-05
372.8135,-4.276758E-05
372.9135,-4.276098E-05
373.0135,-4.275062E-05
373.1136,-4.273838E-05
373.2136,-4.272237E-05
373.3136,-4.273838E-05
373.4136,-4.268377E-05
373.5136,-4.272802E-05
373.6136,-4.270166E-05
373.7136,-4.266964E-05
373.8136,-4.269318E-05
373.9136,-4.269036E-05
374.0136,-4.263291E-05
374.1136,-4.265174E-05
374.2136,-4.265928E-05
374.3136,-4.263385E-05
374.4136,-4.264516E-05
374.5136,-4.264986E-05
374.6136,-4.26056E-05
374.7137,-4.26056E-05
374.8137,-4.260089E-05
374.9137,-4.260654E-05
375.0137,-4.261878E-05
375.1137,-4.260466E-05
375.2137,-4.258488E-05
375.3137,-4.260466E-05
375.4137,-4.258677E-05
375.5137,-4.256416E-05
375.6137,-4.255946E-05
375.7137,-4.25943E-05
375.8137,-4.255286E-05
375.9137,-4.257075E-05
376.0137,-4.255946E-05
376.1137,-4.250766E-05
376.2137,-4.254627E-05
376.3138,-4.256981E-05
376.4138,-4.252743E-05
376.5138,-4.251802E-05
376.6138,-4.255381E-05
376.7138,-4.255004E-05
376.8138,-4.252649E-05
376.9138,-4.252555E-05
377.0138,-4.251331E-05
377.1138,-4.24973E-05
377.2138,-4.251896E-05
377.3138,-4.248223E-05
377.4138,-4.248035E-05
377.5138,-4.246717E-05
377.6138,-4.242855E-05
377.7138,-4.244645E-05
377.8138,-4.247093E-05
377.9138,-4.243326E-05
378.0139,-4.242102E-05
378.1139,-4.241254E-05
378.2139,-4.241726E-05
378.3139,-4.243138E-05
378.4139,-4.242385E-05
378.5139,-4.237676E-05
378.6139,-4.237205E-05
378.7139,-4.241726E-05
378.8139,-4.239936E-05
378.9139,-4.238523E-05
379.0139,-4.239277E-05
379.1139,-4.238523E-05
379.2139,-4.239559E-05
379.3139,-4.243138E-05
379.4139,-4.235981E-05
379.5139,-4.234945E-05
379.614,-4.238994E-05
379.714,-4.235981E-05
379.814,-4.235321E-05
379.914,-4.23664E-05
380.014,-4.231555E-05
380.114,-4.233815E-05
380.214,-4.23325E-05
380.314,-4.23325E-05
380.414,-4.230801E-05
380.514,-4.230896E-05
380.614,-4.231837E-05
380.714,-4.230613E-05
380.814,-4.230425E-05
380.914,-4.226658E-05
381.014,-4.228824E-05
381.114,-4.230707E-05
381.2141,-4.225622E-05
381.3141,-4.227788E-05
381.4141,-4.225998E-05
381.5141,-4.225057E-05
381.6141,-4.22807E-05
381.7141,-4.225433E-05
381.8141,-4.222326E-05
381.9141,-4.223739E-05
382.0141,-4.224963E-05
382.1141,-4.222796E-05
382.2141,-4.22242E-05
382.3141,-4.221949E-05
382.4141,-4.220913E-05
382.5141,-4.22289E-05
382.6141,-4.226564E-05
382.7141,-4.219124E-05
382.8141,-4.217052E-05
382.9142,-4.22289E-05
383.0142,-4.218653E-05
383.1142,-4.218935E-05
383.2142,-4.215922E-05
383.3142,-4.215263E-05
383.4142,-4.217994E-05
383.5142,-4.217429E-05
383.6142,-4.218841E-05
383.7142,-4.215639E-05
383.8142,-4.214886E-05
383.9142,-4.217146E-05
384.0142,-4.217994E-05
384.1142,-4.216204E-05
384.2142,-4.213191E-05
384.3142,-4.213567E-05
384.4142,-4.216582E-05
384.5143,-4.215451E-05
384.6143,-4.209047E-05
384.7143,-4.212344E-05
384.8143,-4.212908E-05
384.9143,-4.211213E-05
385.0143,-4.211119E-05
385.1143,-4.210271E-05
385.2143,-4.209141E-05
385.3143,-4.209989E-05
385.4143,-4.207164E-05
385.5143,-4.208294E-05
385.6143,-4.211778E-05
385.7143,-4.208765E-05
385.8143,-4.206693E-05
385.9143,-4.207917E-05
386.0143,-4.206693E-05
386.1143,-4.208294E-05
386.2144,-4.20707E-05
386.3144,-4.20594E-05
386.4144,-4.202455E-05
386.5144,-4.204715E-05
386.6144,-4.204244E-05
386.7144,-4.201984E-05
386.8144,-4.203491E-05
386.9144,-4.19963E-05
387.0144,-4.199347E-05
387.1144,-4.201513E-05
387.2144,-4.198971E-05
387.3144,-4.196899E-05
387.4144,-4.198406E-05
387.5144,-4.200289E-05
387.6144,-4.197558E-05
387.7144,-4.199065E-05
387.8145,-4.198971E-05
387.9145,-4.197087E-05
388.0145,-4.199912E-05
388.1145,-4.199724E-05
388.2145,-4.195957E-05
388.3145,-4.197087E-05
388.4145,-4.195675E-05
388.5145,-4.193414E-05
388.6145,-4.194639E-05
388.7145,-4.193132E-05
388.8145,-4.190401E-05
388.9145,-4.192943E-05
389.0145,-4.193508E-05
389.1145,-4.186069E-05
389.2145,-4.188612E-05
389.3145,-4.190401E-05
389.4146,-4.190307E-05
389.5146,-4.188047E-05
389.6146,-4.188424E-05
389.7146,-4.184563E-05
389.8146,-4.186257E-05
389.9146,-4.187387E-05
390.0146,-4.185316E-05
390.1146,-4.183056E-05
390.2146,-4.183432E-05
390.3146,-4.181172E-05
390.4146,-4.183809E-05
390.5146,-4.183998E-05
390.6146,-4.179665E-05
390.7146,-4.17797E-05
390.8146,-4.182585E-05
390.9146,-4.180607E-05
391.0146,-4.180419E-05
391.1147,-4.176746E-05
391.2147,-4.176558E-05
391.3147,-4.177123E-05
391.4147,-4.177782E-05
391.5147,-4.177029E-05
391.6147,-4.175239E-05
391.7147,-4.176369E-05
391.8147,-4.173827E-05
391.9147,-4.174768E-05
392.0147,-4.173921E-05
392.1147,-4.170531E-05
392.2147,-4.170813E-05
392.3147,-4.174297E-05
392.4147,-4.173262E-05
392.5147,-4.170248E-05
392.6147,-4.169306E-05
392.7148,-4.167799E-05
392.8148,-4.167893E-05
392.9148,-4.170907E-05
393.0148,-4.165822E-05
393.1148,-4.163655E-05
393.2148,-4.170154E-05
393.3148,-4.169306E-05
393.4148,-4.164974E-05
393.5148,-4.165351E-05
393.6148,-4.16714E-05
393.7148,-4.163655E-05
393.8148,-4.165257E-05
393.9148,-4.164127E-05
394.0148,-4.16375E-05
394.1148,-4.164032E-05
394.2148,-4.162244E-05
394.3148,-4.161584E-05
394.4149,-4.162244E-05
394.5149,-4.159512E-05
394.6149,-4.159418E-05
394.7149,-4.162149E-05
394.8149,-4.160736E-05
394.9149,-4.158382E-05
395.0149,-4.157441E-05
395.1149,-4.158476E-05
395.2149,-4.157252E-05
395.3149,-4.158947E-05
395.4149,-4.153674E-05
395.5149,-4.158664E-05
395.6149,-4.159324E-05
395.7149,-4.158288E-05
395.8149,-4.154898E-05
395.9149,-4.157346E-05
396.015,-4.155275E-05
396.115,-4.154238E-05
396.215,-4.155463E-05
396.315,-4.153297E-05
396.415,-4.151319E-05
396.515,-4.15405E-05
396.615,-4.149341E-05
396.715,-4.15179E-05
396.815,-4.149436E-05
396.915,-4.146799E-05
397.015,-4.146234E-05
397.115,-4.147929E-05
397.215,-4.149812E-05
397.315,-4.145763E-05
397.415,-4.145292E-05
397.515,-4.146045E-05
397.6151,-4.142938E-05
397.7151,-4.145951E-05
397.8151,-4.145198E-05
397.9151,-4.142279E-05
398.0151,-4.142561E-05
398.1151,-4.14209E-05
398.2151,-4.143126E-05
398.3151,-4.141808E-05
398.4151,-4.14049E-05
398.5151,-4.137758E-05
398.6151,-4.13757E-05
398.7151,-4.137099E-05
398.8151,-4.137947E-05
398.9151,-4.138794E-05
399.0151,-4.137758E-05
399.1151,-4.135027E-05
399.2151,-4.136817E-05
399.3152,-4.135686E-05
399.4152,-4.134839E-05
399.5152,-4.134086E-05
399.6152,-4.134933E-05
399.7152,-4.133709E-05
399.8152,-4.135969E-05
399.9152,-4.138323E-05
400.0152,-4.135216E-05
400.1152,-4.135216E-05
400.2152,-4.134651E-05
400.3152,-4.133332E-05
400.4152,-4.133897E-05
400.5152,-4.134556E-05
400.6152,-4.131731E-05
400.7152,-4.134179E-05
400.8152,-4.132861E-05
400.9153,-4.128059E-05
401.0153,-4.129565E-05
401.1153,-4.129471E-05
401.2153,-4.128529E-05
401.3153,-4.131825E-05
401.4153,-4.129094E-05
401.5153,-4.129754E-05
401.6153,-4.130978E-05
401.7153,-4.129094E-05
401.8153,-4.126081E-05
401.9153,-4.124762E-05
402.0153,-4.128435E-05
402.1153,-4.124386E-05
402.2153,-4.125704E-05
402.3153,-4.12448E-05
402.4153,-4.122597E-05
402.5154,-4.122973E-05
402.6154,-4.123727E-05
402.7154,-4.121278E-05
402.8154,-4.121749E-05
402.9154,-4.123444E-05
403.0154,-4.121184E-05
403.1154,-4.122879E-05
403.2154,-4.12156E-05
403.3154,-4.121937E-05
403.4154,-4.119959E-05
403.5154,-4.120619E-05
403.6154,-4.120995E-05
403.7154,-4.119865E-05
403.8154,-4.117793E-05
403.9154,-4.116758E-05
404.0154,-4.120054E-05
404.1154,-4.119394E-05
404.2155,-4.113273E-05
404.3155,-4.122219E-05
404.4155,-4.12448E-05
404.5155,-4.119771E-05
404.6155,-4.116946E-05
404.7155,-4.118264E-05
404.8155,-4.119206E-05
404.9155,-4.118076E-05
405.0155,-4.116852E-05
405.1155,-4.116004E-05
405.2155,-4.116286E-05
405.3155,-4.118829E-05
405.4155,-4.116381E-05
405.5155,-4.115062E-05
405.6155,-4.114309E-05
405.7155,-4.111955E-05
405.8156,-4.113273E-05
405.9156,-4.114498E-05
406.0156,-4.112802E-05
406.1156,-4.111107E-05
406.2156,-4.112143E-05
406.3156,-4.112802E-05
406.4156,-4.110448E-05
406.5156,-4.113085E-05
406.6156,-4.110825E-05
406.7156,-4.110166E-05
406.8156,-4.110448E-05
406.9156,-4.107623E-05
407.0156,-4.10734E-05
407.1156,-4.112049E-05
407.2156,-4.114309E-05
407.3156,-4.108282E-05
407.4156,-4.110825E-05
407.5157,-4.110825E-05
407.6157,-4.106492E-05
407.7157,-4.109412E-05
407.8157,-4.108941E-05
407.9157,-4.106492E-05
408.0157,-4.107999E-05
408.1157,-4.108659E-05
408.2157,-4.10395E-05
408.3157,-4.105174E-05
408.4157,-4.107058E-05
408.5157,-4.105928E-05
408.6157,-4.104892E-05
408.7157,-4.109883E-05
408.8157,-4.10508E-05
408.9157,-4.107435E-05
409.0157,-4.107811E-05
409.1158,-4.104421E-05
409.2158,-4.105551E-05
409.3158,-4.104703E-05
409.4158,-4.10508E-05
409.5158,-4.10508E-05
409.6158,-4.105834E-05
409.7158,-4.10282E-05
409.8158,-4.104986E-05
409.9158,-4.103197E-05
410.0158,-4.101125E-05
410.1158,-4.102914E-05
410.2158,-4.10621E-05
410.3158,-4.099524E-05
410.4158,-4.104233E-05
410.5158,-4.103009E-05
410.6158,-4.100466E-05
410.7159,-4.102632E-05
410.8159,-4.099241E-05
410.9159,-4.102161E-05
411.0159,-4.100278E-05
411.1159,-4.103291E-05
411.2159,-4.10282E-05
411.3159,-4.10056E-05
411.4159,-4.105739E-05
411.5159,-4.106681E-05
411.6159,-4.101219E-05
411.7159,-4.104515E-05
411.8159,-4.104515E-05
411.9159,-4.101219E-05
412.0159,-4.102066E-05
412.1159,-4.104421E-05
412.2159,-4.10056E-05
412.3159,-4.102255E-05
412.416,-4.101878E-05
412.516,-4.09651E-05
412.616,-4.099618E-05
412.716,-4.101784E-05
412.816,-4.09943E-05
412.916,-4.09604E-05
413.016,-4.101878E-05
413.116,-4.101313E-05
413.216,-4.101125E-05
413.316,-4.099147E-05
413.416,-4.097829E-05
413.516,-4.0983E-05
413.616,-4.099618E-05
413.716,-4.095945E-05
413.816,-4.097735E-05
413.916,-4.098959E-05
414.0161,-4.097546E-05
414.1161,-4.099053E-05
414.2161,-4.097735E-05
414.3161,-4.096982E-05
414.4161,-4.096134E-05
414.5161,-4.096134E-05
414.6161,-4.096605E-05
414.7161,-4.096322E-05
414.8161,-4.097923E-05
414.9161,-4.099995E-05
415.0161,-4.097923E-05
415.1161,-4.105928E-05
415.2161,-4.104421E-05
415.3161,-4.098677E-05
415.4161,-4.104233E-05
415.5161,-4.10395E-05
415.6161,-4.101031E-05
415.7162,-4.106681E-05
415.8162,-4.105834E-05
415.9162,-4.099618E-05
416.0162,-4.102726E-05
416.1162,-4.103479E-05
416.2162,-4.098488E-05
416.3162,-4.101878E-05
416.4162,-4.104327E-05
416.5162,-4.097452E-05
416.6162,-4.100371E-05
416.7162,-4.104044E-05
416.8162,-4.102537E-05
416.9162,-4.098582E-05
417.0162,-4.100278E-05
417.1162,-4.102537E-05
417.2162,-4.102726E-05
417.3163,-4.101501E-05
417.4163,-4.099901E-05
417.5163,-4.104892E-05
417.6163,-4.104233E-05
417.7163,-4.103009E-05
417.8163,-4.102255E-05
417.9163,-4.103291E-05
418.0163,-4.104327E-05
418.1163,-4.105363E-05
418.2163,-4.105928E-05
418.3163,-4.103291E-05
418.4163,-4.103668E-05
418.5163,-4.10621E-05
418.6163,-4.105174E-05
418.7163,-4.104892E-05
418.8163,-4.108753E-05
418.9164,-4.106681E-05
419.0164,-4.110448E-05
419.1164,-4.110542E-05
419.2164,-4.106587E-05
419.3164,-4.109506E-05
419.4164,-4.111295E-05
419.5164,-4.108564E-05
419.6164,-4.110825E-05
419.7164,-4.110071E-05
419.8164,-4.109224E-05
419.9164,-4.109035E-05
420.0164,-4.11252E-05
420.1164,-4.108847E-05
420.2164,-4.110542E-05
420.3164,-4.115816E-05
420.4164,-4.113273E-05
420.5164,-4.111672E-05
420.6165,-4.113179E-05
420.7165,-4.113744E-05
420.8165,-4.115156E-05
420.9165,-4.116098E-05
421.0165,-4.11478E-05
421.1165,-4.114592E-05
421.2165,-4.115628E-05
421.3165,-4.116852E-05
421.4165,-4.115721E-05
421.5165,-4.115721E-05
421.6165,-4.115062E-05
421.7165,-4.118171E-05
421.8165,-4.118171E-05
421.9165,-4.11591E-05
422.0165,-4.117323E-05
422.1165,-4.119206E-05
422.2166,-4.117134E-05
422.3166,-4.120336E-05
422.4166,-4.118829E-05
422.5166,-4.116475E-05
422.6166,-4.118453E-05
422.7166,-4.123161E-05
422.8166,-4.118924E-05
422.9166,-4.11591E-05
423.0166,-4.119112E-05
423.1166,-4.119677E-05
423.2166,-4.118641E-05
423.3166,-4.120524E-05
423.4166,-4.11478E-05
423.5166,-4.117699E-05
423.6166,-4.118453E-05
423.7166,-4.116852E-05
423.8167,-4.116004E-05
423.9167,-4.118736E-05
424.0167,-4.119206E-05
424.1167,-4.118736E-05
424.2167,-4.119489E-05
424.3167,-4.118829E-05
424.4167,-4.117323E-05
424.5167,-4.120995E-05
424.6167,-4.119677E-05
424.7167,-4.119112E-05
424.8167,-4.120054E-05
424.9167,-4.121278E-05
425.0167,-4.118171E-05
425.1167,-4.118359E-05
425.2167,-4.119583E-05
425.3167,-4.118359E-05
425.4167,-4.119206E-05
425.5168,-4.117699E-05
425.6168,-4.116852E-05
425.7168,-4.118924E-05
425.8168,-4.11704E-05
425.9168,-4.116758E-05
426.0168,-4.117793E-05
426.1168,-4.118547E-05
426.2168,-4.11591E-05
426.3168,-4.119677E-05
426.4168,-4.116664E-05
426.5168,-4.116852E-05
426.6168,-4.119112E-05
426.7168,-4.117417E-05
426.8168,-4.116098E-05
426.9168,-4.114874E-05
427.0168,-4.116004E-05
427.1169,-4.116098E-05
427.2169,-4.117323E-05
427.3169,-4.116946E-05
427.4169,-4.11365E-05
427.5169,-4.116381E-05
427.6169,-4.113555E-05
427.7169,-4.115062E-05
427.8169,-4.116852E-05
427.9169,-4.11365E-05
428.0169,-4.114686E-05
428.1169,-4.113933E-05
428.2169,-4.114592E-05
428.3169,-4.114309E-05
428.4169,-4.115721E-05
428.5169,-4.115439E-05
428.6169,-4.112332E-05
428.7169,-4.113179E-05
428.817,-4.11478E-05
428.917,-4.114592E-05
429.017,-4.113838E-05
429.117,-4.113933E-05
429.217,-4.113085E-05
429.317,-4.115251E-05
429.417,-4.115816E-05
429.517,-4.114498E-05
429.617,-4.111013E-05
429.717,-4.112708E-05
429.817,-4.112991E-05
429.917,-4.112991E-05
430.017,-4.114121E-05
430.117,-4.111955E-05
430.217,-4.109506E-05
430.317,-4.114121E-05
430.4171,-4.113462E-05
430.5171,-4.111107E-05
430.6171,-4.112237E-05
430.7171,-4.109883E-05
430.8171,-4.110354E-05
430.9171,-4.111202E-05
431.0171,-4.110825E-05
431.1171,-4.108282E-05
431.2171,-4.110448E-05
431.3171,-4.110542E-05
431.4171,-4.109695E-05
431.5171,-4.110166E-05
431.6171,-4.106964E-05
431.7171,-4.107623E-05
431.8171,-4.109318E-05
431.9171,-4.109789E-05
432.0172,-4.108094E-05
432.1172,-4.107058E-05
432.2172,-4.104609E-05
432.3172,-4.107717E-05
432.4172,-4.109035E-05
432.5172,-4.107435E-05
432.6172,-4.104798E-05
432.7172,-4.106492E-05
432.8172,-4.106304E-05
432.9172,-4.109035E-05
433.0172,-4.109695E-05
433.1172,-4.105739E-05
433.2172,-4.104986E-05
433.3172,-4.110919E-05
433.4172,-4.108659E-05
433.5172,-4.105645E-05
433.6172,-4.105928E-05
433.7173,-4.103291E-05
433.8173,-4.102349E-05
433.9173,-4.104798E-05
434.0173,-4.104609E-05
434.1173,-4.101596E-05
434.2173,-4.100278E-05
434.3173,-4.103573E-05
434.4173,-4.101501E-05
434.5173,-4.103573E-05
434.6173,-4.102066E-05
434.7173,-4.100936E-05
434.8173,-4.100183E-05
434.9173,-4.100748E-05
435.0173,-4.098959E-05
435.1173,-4.098582E-05
435.2173,-4.10169E-05
435.3174,-4.101501E-05
435.4174,-4.10169E-05
435.5174,-4.101407E-05
435.6174,-4.098111E-05
435.7174,-4.101313E-05
435.8174,-4.101878E-05
435.9174,-4.099901E-05
436.0174,-4.101313E-05
436.1174,-4.10508E-05
436.2174,-4.104421E-05
436.3174,-4.102349E-05
436.4174,-4.10169E-05
436.5174,-4.099712E-05
436.6174,-4.100183E-05
436.7174,-4.100748E-05
436.8174,-4.098488E-05
436.9174,-4.097923E-05
437.0175,-4.098771E-05
437.1175,-4.094156E-05
437.2175,-4.096416E-05
437.3175,-4.098394E-05
437.4175,-4.09764E-05
437.5175,-4.098394E-05
437.6175,-4.098111E-05
437.7175,-4.098959E-05
437.8175,-4.097923E-05
437.9175,-4.099335E-05
438.0175,-4.097452E-05
438.1175,-4.096982E-05
438.2175,-4.105928E-05
438.3175,-4.10056E-05
438.4175,-4.09651E-05
438.5175,-4.100371E-05
438.6176,-4.100089E-05
438.7176,-4.09717E-05
438.8176,-4.099335E-05
438.9176,-4.096322E-05
439.0176,-4.09538E-05
439.1176,-4.097546E-05
439.2176,-4.099618E-05
439.3176,-4.095945E-05
439.4176,-4.097264E-05
439.5176,-4.098582E-05
439.6176,-4.098959E-05
439.7176,-4.096605E-05
439.8176,-4.097075E-05
439.9176,-4.09538E-05
440.0176,-4.099901E-05
440.1176,-4.098959E-05
440.2177,-4.095569E-05
440.3177,-4.097452E-05
440.4177,-4.097546E-05
440.5177,-4.098017E-05
440.6177,-4.097546E-05
440.7177,-4.099335E-05
440.8177,-4.09764E-05
440.9177,-4.103291E-05
441.0177,-4.100748E-05
441.1177,-4.100183E-05
441.2177,-4.100654E-05
441.3177,-4.099806E-05
441.4177,-4.100748E-05
441.5177,-4.104044E-05
441.6177,-4.101125E-05
441.7177,-4.097358E-05
441.8177,-4.102255E-05
441.9178,-4.102726E-05
442.0178,-4.101219E-05
442.1178,-4.105928E-05
442.2178,-4.102537E-05
442.3178,-4.099901E-05
442.4178,-4.10395E-05
442.5178,-4.104044E-05
442.6178,-4.102537E-05
442.7178,-4.103103E-05
442.8178,-4.106022E-05
442.9178,-4.101313E-05
443.0178,-4.104327E-05
443.1178,-4.104044E-05
443.2178,-4.101972E-05
443.3178,-4.105268E-05
443.4178,-4.107529E-05
443.5179,-4.103762E-05
443.6179,-4.109601E-05
443.7179,-4.107529E-05
443.8179,-4.105739E-05
443.9179,-4.102914E-05
444.0179,-4.105834E-05
444.1179,-4.106964E-05
444.2179,-4.105551E-05
444.3179,-4.106964E-05
444.4179,-4.104044E-05
444.5179,-4.106492E-05
444.6179,-4.109412E-05
444.7179,-4.107529E-05
444.8179,-4.108753E-05
444.9179,-4.109506E-05
445.0179,-4.109789E-05
445.118,-4.108941E-05
445.218,-4.108941E-05
445.318,-4.109412E-05
445.418,-4.112237E-05
445.518,-4.116852E-05
445.618,-4.116852E-05
445.718,-4.114498E-05
445.818,-4.123255E-05
445.918,-4.119489E-05
446.018,-4.115251E-05
446.118,-4.12269E-05
446.218,-4.123161E-05
446.318,-4.118453E-05
446.418,-4.121843E-05
446.518,-4.120524E-05
446.618,-4.11704E-05
446.718,-4.119677E-05
446.8181,-4.124009E-05
446.9181,-4.11704E-05
447.0181,-4.117134E-05
447.1181,-4.121372E-05
447.2181,-4.118736E-05
447.3181,-4.116664E-05
447.4181,-4.117323E-05
447.5181,-4.116758E-05
447.6181,-4.116664E-05
447.7181,-4.119206E-05
447.8181,-4.117699E-05
447.9181,-4.118264E-05
448.0181,-4.117605E-05
448.1181,-4.117134E-05
448.2181,-4.122408E-05
448.3181,-4.119583E-05
448.4182,-4.115721E-05
448.5182,-4.124574E-05
448.6182,-4.122125E-05
448.7182,-4.119206E-05
448.8182,-4.125516E-05
448.9182,-4.122879E-05
449.0182,-4.120619E-05
449.1182,-4.12448E-05
449.2182,-4.123915E-05
449.3182,-4.121372E-05
449.4182,-4.12561E-05
449.5182,-4.129565E-05
449.6182,-4.121372E-05
449.7182,-4.127305E-05
449.8182,-4.130413E-05
449.9182,-4.129377E-05
450.0182,-4.130789E-05
450.1183,-4.127682E-05
450.2183,-4.126175E-05
450.3183,-4.130318E-05
450.4183,-4.134086E-05
450.5183,-4.130884E-05
450.6183,-4.130413E-05
450.7183,-4.130695E-05
450.8183,-4.131448E-05
450.9183,-4.132485E-05
451.0183,-4.138888E-05
451.1183,-4.13305E-05
451.2183,-4.133614E-05
451.3183,-4.137382E-05
451.4183,-4.133803E-05
451.5183,-4.137005E-05
451.6183,-4.137005E-05
451.7184,-4.13578E-05
451.8184,-4.134556E-05
451.9184,-4.1387E-05
452.0184,-4.137099E-05
452.1184,-4.139642E-05
452.2184,-4.140866E-05
452.3184,-4.137287E-05
452.4184,-4.140866E-05
452.5184,-4.14162E-05
452.6184,-4.139736E-05
452.7184,-4.14096E-05
452.8184,-4.139736E-05
452.9184,-4.14096E-05
453.0184,-4.142938E-05
453.1184,-4.143126E-05
453.2184,-4.14049E-05
453.3185,-4.142561E-05
453.4185,-4.144633E-05
453.5185,-4.143409E-05
453.6185,-4.146799E-05
453.7185,-4.143314E-05
453.8185,-4.14209E-05
453.9185,-4.144539E-05
454.0185,-4.146234E-05
454.1185,-4.144633E-05
454.2185,-4.146893E-05
454.3185,-4.147741E-05
454.4185,-4.145386E-05
454.5185,-4.146234E-05
454.6185,-4.148871E-05
454.7185,-4.14727E-05
454.8185,-4.148776E-05
454.9185,-4.148588E-05
455.0186,-4.146516E-05
455.1186,-4.14953E-05
455.2186,-4.151696E-05
455.3186,-4.149718E-05
455.4186,-4.149436E-05
455.5186,-4.14953E-05
455.6186,-4.151696E-05
455.7186,-4.154144E-05
455.8186,-4.151319E-05
455.9186,-4.148871E-05
456.0186,-4.152543E-05
456.1186,-4.152449E-05
456.2186,-4.151225E-05
456.3186,-4.151978E-05
456.4186,-4.150378E-05
456.5186,-4.150189E-05
456.6187,-4.152732E-05
456.7187,-4.153956E-05
456.8187,-4.150095E-05
456.9187,-4.150472E-05
457.0187,-4.150848E-05
457.1187,-4.150472E-05
457.2187,-4.15292E-05
457.3187,-4.152073E-05
457.4187,-4.151696E-05
457.5187,-4.153203E-05
457.6187,-4.15584E-05
457.7187,-4.153109E-05
457.8187,-4.153014E-05
457.9187,-4.153862E-05
458.0187,-4.153768E-05
458.1187,-4.156405E-05
458.2188,-4.158006E-05
458.3188,-4.152732E-05
458.4188,-4.153956E-05
458.5188,-4.156593E-05
458.6188,-4.154992E-05
458.7188,-4.156028E-05
458.8188,-4.155275E-05
458.9188,-4.151319E-05
459.0188,-4.154144E-05
459.1188,-4.15518E-05
459.2188,-4.154898E-05
459.3188,-4.154332E-05
459.4188,-4.152732E-05
459.5188,-4.153485E-05
459.6188,-4.157063E-05
459.7188,-4.157063E-05
459.8188,-4.150943E-05
459.9189,-4.153579E-05
460.0189,-4.155369E-05
460.1189,-4.154615E-05
460.2189,-4.154804E-05
460.3189,-4.155745E-05
460.4189,-4.153768E-05
460.5189,-4.156875E-05
460.6189,-4.154615E-05
460.7189,-4.152167E-05
460.8189,-4.15518E-05
460.9189,-4.15405E-05
461.0189,-4.15584E-05
461.1189,-4.153203E-05
461.2189,-4.15518E-05
461.3189,-4.155275E-05
461.4189,-4.153391E-05
461.519,-4.154332E-05
461.619,-4.155934E-05
461.719,-4.156405E-05
461.819,-4.1581E-05
461.919,-4.152543E-05
462.019,-4.154427E-05
462.119,-4.159701E-05
462.219,-4.157723E-05
462.319,-4.155934E-05
462.419,-4.156593E-05
462.519,-4.157535E-05
462.619,-4.15584E-05
462.719,-4.158947E-05
462.819,-4.158006E-05
462.919,-4.15631E-05
463.019,-4.155934E-05
463.119,-4.155369E-05
463.2191,-4.153014E-05
463.3191,-4.159512E-05
463.4191,-4.160077E-05
463.5191,-4.156028E-05
463.6191,-4.157158E-05
463.7191,-4.1581E-05
463.8191,-4.155745E-05
463.9191,-4.160077E-05
464.0191,-4.159606E-05
464.1191,-4.155275E-05
464.2191,-4.154615E-05
464.3191,-4.155745E-05
464.4191,-4.154332E-05
464.5191,-4.155557E-05
464.6191,-4.154898E-05
464.7191,-4.15179E-05
464.8192,-4.154521E-05
464.9192,-4.15584E-05
465.0192,-4.153485E-05
465.1192,-4.153109E-05
465.2192,-4.153014E-05
465.3192,-4.151602E-05
465.4192,-4.156969E-05
465.5192,-4.152261E-05
465.6192,-4.150566E-05
465.7192,-4.154238E-05
465.8192,-4.153674E-05
465.9192,-4.153014E-05
466.0192,-4.153297E-05
466.1192,-4.15292E-05
466.2192,-4.155463E-05
466.3192,-4.15923E-05
466.4193,-4.156781E-05
466.5193,-4.154992E-05
466.6193,-4.155557E-05
466.7193,-4.154992E-05
466.8193,-4.152167E-05
466.9193,-4.154521E-05
467.0193,-4.153862E-05
467.1193,-4.156969E-05
467.2193,-4.154332E-05
467.3193,-4.15292E-05
467.4193,-4.151978E-05
467.5193,-4.157252E-05
467.6193,-4.156028E-05
467.7193,-4.152543E-05
467.8193,-4.153579E-05
467.9193,-4.157158E-05
468.0193,-4.153674E-05
468.1194,-4.152732E-05
468.2194,-4.154898E-05
468.3194,-4.156593E-05
468.4194,-4.154615E-05
468.5194,-4.155275E-05
468.6194,-4.156216E-05
468.7194,-4.15066E-05
468.8194,-4.157629E-05
468.9194,-4.15518E-05
469.0194,-4.153203E-05
469.1194,-4.154427E-05
469.2194,-4.155463E-05
469.3194,-4.155275E-05
469.4194,-4.153297E-05
469.5194,-4.154804E-05
469.6194,-4.155369E-05
469.7195,-4.159512E-05
469.8195,-4.158476E-05
469.9195,-4.151884E-05
470.0195,-4.155557E-05
470.1195,-4.15518E-05
470.2195,-4.152449E-05
470.3195,-4.156875E-05
470.4195,-4.155745E-05
470.5195,-4.152261E-05
470.6195,-4.154427E-05
470.7195,-4.156122E-05
470.8195,-4.15471E-05
470.9195,-4.155369E-05
471.0195,-4.153862E-05
471.1195,-4.153109E-05
471.2195,-4.155934E-05
471.3195,-4.157158E-05
471.4196,-4.154615E-05
471.5196,-4.155086E-05
471.6196,-4.156028E-05
471.7196,-4.154992E-05
471.8196,-4.155557E-05
471.9196,-4.157629E-05
472.0196,-4.15292E-05
472.1196,-4.156498E-05
472.2196,-4.160925E-05
472.3196,-4.155369E-05
472.4196,-4.155557E-05
472.5196,-4.156969E-05
472.6196,-4.156593E-05
472.7196,-4.156781E-05
472.8196,-4.158006E-05
472.9196,-4.153297E-05
473.0197,-4.156216E-05
473.1197,-4.15857E-05
473.2197,-4.156875E-05
473.3197,-4.153674E-05
473.4197,-4.158664E-05
473.5197,-4.15584E-05
473.6197,-4.157346E-05
473.7197,-4.160172E-05
473.8197,-4.156687E-05
473.9197,-4.155557E-05
474.0197,-4.159701E-05
474.1197,-4.158664E-05
474.2197,-4.159418E-05
474.3197,-4.15518E-05
474.4197,-4.156216E-05
474.5197,-4.162997E-05
474.6198,-4.16667E-05
474.7198,-4.158288E-05
474.8198,-4.158194E-05
474.9198,-4.161113E-05
475.0198,-4.159418E-05
475.1198,-4.160925E-05
475.2198,-4.16262E-05
475.3198,-4.158664E-05
475.4198,-4.158947E-05
475.5198,-4.159606E-05
475.6198,-4.159889E-05
475.7198,-4.162337E-05
475.8198,-4.161113E-05
475.9198,-4.158288E-05
476.0198,-4.159418E-05
476.1198,-4.161489E-05
476.2198,-4.159889E-05
476.3199,-4.159983E-05
476.4199,-4.162055E-05
476.5199,-4.155934E-05
476.6199,-4.161867E-05
476.7199,-4.161772E-05
476.8199,-4.157629E-05
476.9199,-4.158947E-05
477.0199,-4.159324E-05
477.1199,-4.160642E-05
477.2199,-4.159794E-05
477.3199,-4.161019E-05
477.4199,-4.159701E-05
477.5199,-4.16375E-05
477.6199,-4.16601E-05
477.7199,-4.16262E-05
477.8199,-4.164032E-05
477.92,-4.162902E-05
478.02,-4.162244E-05
478.12,-4.163655E-05
478.22,-4.163374E-05
478.32,-4.161584E-05
478.42,-4.164315E-05
478.52,-4.163938E-05
478.62,-4.161207E-05
478.72,-4.161772E-05
478.82,-4.164692E-05
478.92,-4.164315E-05
479.02,-4.167611E-05
479.12,-4.165068E-05
479.22,-4.16488E-05
479.32,-4.169777E-05
479.42,-4.16893E-05
479.5201,-4.16488E-05
479.6201,-4.16422E-05
479.7201,-4.165068E-05
479.8201,-4.164974E-05
479.9201,-4.165351E-05
480.0201,-4.165822E-05
480.1201,-4.16262E-05
480.2201,-4.164315E-05
480.3201,-4.165916E-05
480.4201,-4.165445E-05
480.5201,-4.163938E-05
480.6201,-4.163938E-05
480.7201,-4.163374E-05
480.8201,-4.165257E-05
480.9201,-4.166481E-05
481.0201,-4.165163E-05
481.1201,-4.164598E-05
481.2202,-4.163938E-05
481.3202,-4.166105E-05
481.4202,-4.166481E-05
481.5202,-4.169777E-05
481.6202,-4.163562E-05
481.7202,-4.16714E-05
481.8202,-4.169212E-05
481.9202,-4.166293E-05
482.0202,-4.166293E-05
482.1202,-4.168741E-05
482.2202,-4.166952E-05
482.3202,-4.16601E-05
482.4202,-4.171095E-05
482.5202,-4.170342E-05
482.6202,-4.169495E-05
482.7202,-4.171472E-05
482.8203,-4.170813E-05
482.9203,-4.166952E-05
483.0203,-4.169777E-05
483.1203,-4.171567E-05
483.2203,-4.171472E-05
483.3203,-4.170625E-05
483.4203,-4.169212E-05
483.5203,-4.171095E-05
483.6203,-4.170436E-05
483.7203,-4.172791E-05
483.8203,-4.167799E-05
483.9203,-4.175239E-05
484.0203,-4.173921E-05
484.1203,-4.170342E-05
484.2203,-4.172885E-05
484.3203,-4.174297E-05
484.4203,-4.171001E-05
484.5204,-4.172885E-05
484.6204,-4.173827E-05
484.7204,-4.170813E-05
484.8204,-4.175145E-05
484.9204,-4.17232E-05
485.0204,-4.173073E-05
485.1204,-4.173167E-05
485.2204,-4.172791E-05
485.3204,-4.174297E-05
485.4204,-4.17571E-05
485.5204,-4.172696E-05
485.6204,-4.173732E-05
485.7204,-4.173356E-05
485.8204,-4.173262E-05
485.9204,-4.174392E-05
486.0204,-4.175899E-05
486.1205,-4.174862E-05
486.2205,-4.174109E-05
486.3205,-4.176369E-05
486.4205,-4.176087E-05
486.5205,-4.174109E-05
486.6205,-4.174392E-05
486.7205,-4.174768E-05
486.8205,-4.17571E-05
486.9205,-4.179382E-05
487.0205,-4.1791E-05
487.1205,-4.174862E-05
487.2205,-4.176746E-05
487.3205,-4.179759E-05
487.4205,-4.178158E-05
487.5205,-4.1791E-05
487.6205,-4.180607E-05
487.7206,-4.177217E-05
487.8206,-4.179194E-05
487.9206,-4.178818E-05
488.0206,-4.178064E-05
488.1206,-4.180513E-05
488.2206,-4.180984E-05
488.3206,-4.179571E-05
488.4206,-4.179288E-05
488.5206,-4.179948E-05
488.6206,-4.178724E-05
488.7206,-4.179854E-05
488.8206,-4.181078E-05
488.9206,-4.178535E-05
489.0206,-4.179759E-05
489.1206,-4.182302E-05
489.2206,-4.179948E-05
489.3206,-4.180701E-05
489.4207,-4.182585E-05
489.5207,-4.182208E-05
489.6207,-4.183056E-05
489.7207,-4.183903E-05
489.8207,-4.179759E-05
489.9207,-4.182208E-05
490.0207,-4.185127E-05
490.1207,-4.18249E-05
490.2207,-4.183809E-05
490.3207,-4.181737E-05
490.4207,-4.185033E-05
490.5207,-4.183903E-05
490.6207,-4.18315E-05
490.7207,-4.182585E-05
490.8207,-4.185504E-05
490.9207,-4.184374E-05
491.0208,-4.185221E-05
491.1208,-4.185975E-05
491.2208,-4.18767E-05
491.3208,-4.186728E-05
491.4208,-4.189082E-05
491.5208,-4.190777E-05
491.6208,-4.186446E-05
491.7208,-4.187952E-05
491.8208,-4.187952E-05
491.9208,-4.187387E-05
492.0208,-4.188612E-05
492.1208,-4.190119E-05
492.2208,-4.188989E-05
492.3208,-4.185316E-05
492.4208,-4.189271E-05
492.5208,-4.187482E-05
492.6208,-4.189177E-05
492.7209,-4.189836E-05
492.8209,-4.186257E-05
492.9209,-4.185033E-05
493.0209,-4.190401E-05
493.1209,-4.191814E-05
493.2209,-4.189742E-05
493.3209,-4.188894E-05
493.4209,-4.189836E-05
493.5209,-4.189177E-05
493.6209,-4.188989E-05
493.7209,-4.191908E-05
493.8209,-4.189648E-05
493.9209,-4.190966E-05
494.0209,-4.191249E-05
494.1209,-4.189554E-05
494.2209,-4.190495E-05
494.321,-4.190589E-05
494.421,-4.191155E-05
494.521,-4.190401E-05
494.621,-4.191814E-05
494.721,-4.188612E-05
494.821,-4.190495E-05
494.921,-4.194074E-05
495.021,-4.192378E-05
495.121,-4.192661E-05
495.221,-4.192378E-05
495.321,-4.190872E-05
495.421,-4.193603E-05
495.521,-4.193508E-05
495.621,-4.194827E-05
495.721,-4.193226E-05
495.821,-4.193038E-05
495.9211,-4.196051E-05
496.0211,-4.196334E-05
496.1211,-4.195204E-05
496.2211,-4.192755E-05
496.3211,-4.196334E-05
496.4211,-4.1985E-05
496.5211,-4.195392E-05
496.6211,-4.197087E-05
496.7211,-4.197181E-05
496.8211,-4.194262E-05
496.9211,-4.196428E-05
497.0211,-4.199065E-05
497.1211,-4.196146E-05
497.2211,-4.196146E-05
497.3211,-4.196334E-05
497.4211,-4.195957E-05
497.5211,-4.19784E-05
497.6212,-4.199536E-05
497.7212,-4.196805E-05
497.8212,-4.197652E-05
497.9212,-4.197558E-05
498.0212,-4.197558E-05
498.1212,-4.199065E-05
498.2212,-4.199442E-05
498.3212,-4.196334E-05
498.4212,-4.200195E-05
498.5212,-4.199912E-05
498.6212,-4.197087E-05
498.7212,-4.200477E-05
498.8212,-4.200101E-05
498.9212,-4.198312E-05
499.0212,-4.203679E-05
499.1212,-4.204715E-05
499.2213,-4.199724E-05
499.3213,-4.202267E-05
499.4213,-4.203209E-05
499.5213,-4.199253E-05
499.6213,-4.203209E-05
499.7213,-4.204809E-05
499.8213,-4.200477E-05
499.9213,-4.202267E-05
500.0213,-4.204056E-05
500.1213,-4.20189E-05
500.2213,-4.204433E-05
500.3213,-4.204809E-05
500.4213,-4.201513E-05
500.5213,-4.205092E-05
500.6213,-4.206316E-05
500.7213,-4.200855E-05
500.8214,-4.202832E-05
500.9214,-4.205187E-05
501.0214,-4.202172E-05
501.1214,-4.202926E-05
501.2214,-4.20754E-05
501.3214,-4.203962E-05
501.4214,-4.205092E-05
501.5214,-4.206316E-05
501.6214,-4.203868E-05
501.7214,-4.203679E-05
501.8214,-4.204715E-05
501.9214,-4.203962E-05
502.0214,-4.206128E-05
502.1214,-4.206787E-05
502.2214,-4.204997E-05
502.3214,-4.206787E-05
502.4214,-4.206316E-05
502.5215,-4.206505E-05
502.6215,-4.20754E-05
502.7215,-4.208953E-05
502.8215,-4.206693E-05
502.9215,-4.208859E-05
503.0215,-4.209613E-05
503.1215,-4.213003E-05
503.2215,-4.210178E-05
503.3215,-4.208859E-05
503.4215,-4.209706E-05
503.5215,-4.212061E-05
503.6215,-4.210837E-05
503.7215,-4.213191E-05
503.8215,-4.211778E-05
503.9215,-4.21611E-05
504.0215,-4.214886E-05
504.1216,-4.213473E-05
504.2216,-4.216204E-05
504.3216,-4.215733E-05
504.4216,-4.215074E-05
504.5216,-4.216204E-05
504.6216,-4.217146E-05
504.7216,-4.217052E-05
504.8216,-4.215545E-05
504.9216,-4.214886E-05
505.0216,-4.214792E-05
505.1216,-4.218559E-05
505.2216,-4.21903E-05
505.3216,-4.215074E-05
505.4216,-4.221666E-05
505.5216,-4.222043E-05
505.6216,-4.221855E-05
505.7216,-4.222326E-05
505.8217,-4.223927E-05
505.9217,-4.219877E-05
506.0217,-4.22289E-05
506.1217,-4.222702E-05
506.2217,-4.220631E-05
506.3217,-4.222985E-05
506.4217,-4.221855E-05
506.5217,-4.221101E-05
506.6217,-4.223362E-05
506.7217,-4.222796E-05
506.8217,-4.220348E-05
506.9217,-4.227882E-05
507.0217,-4.222137E-05
507.1217,-4.218747E-05
507.2217,-4.225057E-05
507.3217,-4.227128E-05
507.4218,-4.223644E-05
507.5218,-4.224115E-05
507.6218,-4.224397E-05
507.7218,-4.221384E-05
507.8218,-4.225057E-05
507.9218,-4.229012E-05
508.0218,-4.225622E-05
508.1218,-4.226752E-05
508.2218,-4.228729E-05
508.3218,-4.225339E-05
508.4218,-4.226658E-05
508.5218,-4.228259E-05
508.6218,-4.228729E-05
508.7218,-4.228824E-05
508.8218,-4.229389E-05
508.9218,-4.231084E-05
509.0219,-4.227882E-05
509.1219,-4.230896E-05
509.2219,-4.230896E-05
509.3219,-4.229577E-05
509.4219,-4.229671E-05
509.5219,-4.229577E-05
509.6219,-4.231743E-05
509.7219,-4.237582E-05
509.8219,-4.241443E-05
509.9219,-4.232779E-05
510.0219,-4.231649E-05
510.1219,-4.235981E-05
510.2219,-4.234097E-05
510.3219,-4.238617E-05
510.4219,-4.237676E-05
510.5219,-4.23259E-05
510.6219,-4.237111E-05
510.722,-4.236828E-05
510.822,-4.238335E-05
510.922,-4.237394E-05
511.022,-4.233721E-05
511.122,-4.23551E-05
511.222,-4.241914E-05
511.322,-4.244645E-05
511.422,-4.238994E-05
511.522,-4.239559E-05
511.622,-4.238806E-05
511.722,-4.238523E-05
511.822,-4.242761E-05
511.922,-4.243232E-05
512.022,-4.237111E-05
512.122,-4.244174E-05
512.222,-4.245492E-05
512.322,-4.241443E-05
512.4219,-4.241443E-05
512.5219,-4.243326E-05
512.6219,-4.245021E-05
512.7219,-4.247847E-05
512.8218,-4.245398E-05
512.9218,-4.243326E-05
513.0218,-4.244457E-05
513.1218,-4.246905E-05
513.2217,-4.244927E-05
513.3217,-4.248695E-05
513.4217,-4.248223E-05
513.5217,-4.246905E-05
513.6216,-4.249636E-05
513.7216,-4.250295E-05
513.8216,-4.247282E-05
513.9216,-4.250107E-05
514.0215,-4.250107E-05
514.1215,-4.249824E-05
514.2215,-4.250672E-05
514.3215,-4.253026E-05
514.4214,-4.248695E-05
514.5214,-4.25086E-05
514.6214,-4.254533E-05
514.7214,-4.253497E-05
514.8214,-4.257547E-05
514.9213,-4.252932E-05
515.0213,-4.255286E-05
515.1213,-4.256416E-05
515.2213,-4.258488E-05
515.3212,-4.257358E-05
515.4212,-4.257547E-05
515.5212,-4.260466E-05
515.6212,-4.253874E-05
515.7211,-4.258394E-05
515.8211,-4.262255E-05
515.9211,-4.2583E-05
516.0211,-4.262067E-05
516.121,-4.260089E-05
516.221,-4.259807E-05
516.321,-4.258488E-05
516.421,-4.261784E-05
516.5209,-4.261784E-05
516.6209,-4.264044E-05
516.7209,-4.263479E-05
516.8209,-4.263573E-05
516.9208,-4.262632E-05
517.0208,-4.265457E-05
517.1208,-4.262067E-05
517.2208,-4.269318E-05
517.3207,-4.268941E-05
517.4207,-4.267058E-05
517.5207,-4.267623E-05
517.6207,-4.266399E-05
517.7206,-4.267717E-05
517.8206,-4.270919E-05
517.9206,-4.270071E-05
518.0206,-4.270071E-05
518.1205,-4.268E-05
518.2205,-4.272426E-05
518.3205,-4.26913E-05
518.4205,-4.270636E-05
518.5204,-4.271861E-05
518.6204,-4.268941E-05
518.7204,-4.272143E-05
518.8204,-4.274121E-05
518.9203,-4.27073E-05
519.0203,-4.270071E-05
519.1203,-4.277793E-05
519.2203,-4.280524E-05
519.3203,-4.274498E-05
519.4202,-4.277135E-05
519.5202,-4.277605E-05
519.6202,-4.274215E-05
519.7202,-4.284292E-05
519.8201,-4.279866E-05
519.9201,-4.276098E-05
520.0201,-4.282126E-05
520.1201,-4.279112E-05
520.22,-4.278547E-05
520.32,-4.283538E-05
520.42,-4.278359E-05
520.52,-4.279018E-05
520.6199,-4.289094E-05
520.7199,-4.284292E-05
520.8199,-4.283162E-05
520.9199,-4.286269E-05
521.0198,-4.285233E-05
521.1198,-4.28448E-05
521.2198,-4.288435E-05
521.3198,-4.286363E-05
521.4197,-4.281561E-05
521.5197,-4.287776E-05
521.6197,-4.290225E-05
521.7197,-4.284386E-05
521.8196,-4.286363E-05
521.9196,-4.287964E-05
522.0196,-4.285704E-05
522.1196,-4.28966E-05
522.2195,-4.287776E-05
522.3195,-4.286457E-05
522.4195,-4.288718E-05
522.5195,-4.289754E-05
522.6194,-4.288529E-05
522.7194,-4.290413E-05
522.8194,-4.295498E-05
522.9194,-4.291637E-05
523.0193,-4.290695E-05
523.1193,-4.294933E-05
523.2193,-4.29418E-05
523.3193,-4.293144E-05
523.4193,-4.299924E-05
523.5192,-4.297664E-05
523.6192,-4.299265E-05
523.7192,-4.299077E-05
523.8192,-4.30162E-05
523.9191,-4.298606E-05
524.0191,-4.300207E-05
524.1191,-4.297288E-05
524.2191,-4.298135E-05
524.319,-4.301243E-05
524.419,-4.300584E-05
524.519,-4.300772E-05
524.619,-4.30162E-05
524.7189,-4.300678E-05
524.8189,-4.304633E-05
524.9189,-4.302938E-05
525.0189,-4.299548E-05
525.1188,-4.306799E-05
525.2188,-4.304445E-05
525.3188,-4.299736E-05
525.4188,-4.305575E-05
525.5187,-4.308024E-05
525.6187,-4.307364E-05
525.7187,-4.304821E-05
525.8187,-4.309812E-05
525.9186,-4.308024E-05
526.0186,-4.305104E-05
526.1186,-4.309342E-05
526.2186,-4.311602E-05
526.3185,-4.306422E-05
526.4185,-4.309624E-05
526.5185,-4.312826E-05
526.6185,-4.312073E-05
526.7184,-4.309624E-05
526.8184,-4.311979E-05
526.9184,-4.310001E-05
527.0184,-4.314804E-05
527.1183,-4.316593E-05
527.2183,-4.313015E-05
527.3183,-4.313203E-05
527.4183,-4.313768E-05
527.5182,-4.31292E-05
527.6182,-4.314898E-05
527.7182,-4.316311E-05
527.8182,-4.316216E-05
527.9182,-4.315651E-05
528.0181,-4.320172E-05
528.1181,-4.319889E-05
528.2181,-4.316311E-05
528.3181,-4.317817E-05
528.418,-4.318382E-05
528.518,-4.318006E-05
528.618,-4.325163E-05
528.718,-4.31857E-05
528.8179,-4.324221E-05
528.9179,-4.323279E-05
529.0179,-4.323279E-05
529.1179,-4.324504E-05
529.2178,-4.321679E-05
529.3178,-4.323939E-05
529.4178,-4.326575E-05
529.5178,-4.325539E-05
529.6177,-4.326952E-05
529.7177,-4.329212E-05
529.8177,-4.32714E-05
529.9177,-4.327517E-05
530.0176,-4.329212E-05
530.1176,-4.331284E-05
530.2176,-4.331001E-05
530.3176,-4.328458E-05
530.4175,-4.332414E-05
530.5175,-4.333074E-05
530.6175,-4.334015E-05
530.7175,-4.33345E-05
530.8174,-4.334015E-05
530.9174,-4.333827E-05
531.0174,-4.337028E-05
531.1174,-4.333544E-05
531.2173,-4.334392E-05
531.3173,-4.336463E-05
531.4173,-4.334486E-05
531.5173,-4.333638E-05
531.6172,-4.335993E-05
531.7172,-4.334486E-05
531.8172,-4.336652E-05
531.9172,-4.334392E-05
532.0172,-4.338159E-05
532.1171,-4.337782E-05
532.2171,-4.335145E-05
532.3171,-4.338347E-05
532.4171,-4.339383E-05
532.517,-4.344092E-05
532.617,-4.342585E-05
532.717,-4.339759E-05
532.817,-4.342585E-05
532.9169,-4.342679E-05
533.0169,-4.342773E-05
533.1169,-4.344468E-05
533.2169,-4.344657E-05
533.3168,-4.34362E-05
533.4168,-4.34315E-05
533.5168,-4.346258E-05
533.6168,-4.344468E-05
533.7167,-4.344939E-05
533.8167,-4.350024E-05
533.9167,-4.350119E-05
534.0167,-4.34767E-05
534.1166,-4.350024E-05
534.2166,-4.349742E-05
534.3166,-4.348047E-05
534.4166,-4.351343E-05
534.5165,-4.350589E-05
534.6165,-4.353038E-05
534.7165,-4.353603E-05
534.8165,-4.350872E-05
534.9164,-4.351155E-05
535.0164,-4.354356E-05
535.1164,-4.353509E-05
535.2164,-4.359159E-05
535.3163,-4.354921E-05
535.4163,-4.352473E-05
535.5163,-4.357464E-05
535.6163,-4.359724E-05
535.7162,-4.357276E-05
535.8162,-4.358688E-05
535.9162,-4.361984E-05
536.0162,-4.357841E-05
536.1161,-4.362456E-05
536.2161,-4.363962E-05
536.3161,-4.361325E-05
536.4161,-4.361419E-05
536.5161,-4.366599E-05
536.616,-4.36255E-05
536.716,-4.362738E-05
536.816,-4.368294E-05
536.916,-4.366128E-05
537.0159,-4.367541E-05
537.1159,-4.366882E-05
537.2159,-4.365751E-05
537.3159,-4.37159E-05
537.4158,-4.372532E-05
537.5158,-4.368388E-05
537.6158,-4.368106E-05
537.7158,-4.37046E-05
537.8157,-4.371119E-05
537.9157,-4.374509E-05
538.0157,-4.373851E-05
538.1157,-4.371778E-05
538.2156,-4.373285E-05
538.3156,-4.375357E-05
538.4156,-4.373285E-05
538.5156,-4.374415E-05
538.6155,-4.376016E-05
538.7155,-4.374415E-05
538.8155,-4.380254E-05
538.9155,-4.378465E-05
539.0154,-4.374415E-05
539.1154,-4.376016E-05
539.2154,-4.380442E-05
539.3154,-4.379407E-05
539.4153,-4.38129E-05
539.5153,-4.382514E-05
539.6153,-4.377994E-05
539.7153,-4.381102E-05
539.8152,-4.385528E-05
539.9152,-4.381855E-05
540.0152,-4.383644E-05
540.1152,-4.385999E-05
540.2151,-4.385057E-05
540.3151,-4.390801E-05
540.4151,-4.391554E-05
540.5151,-4.386658E-05
540.6151,-4.390613E-05
540.715,-4.389577E-05
540.815,-4.390801E-05
540.915,-4.393062E-05
541.015,-4.392873E-05
541.1149,-4.391743E-05
541.2149,-4.389483E-05
541.3149,-4.393532E-05
541.4149,-4.395416E-05
541.5148,-4.389295E-05
541.6148,-4.393627E-05
541.7148,-4.39325E-05
541.8148,-4.392779E-05
541.9147,-4.396546E-05
542.0147,-4.394568E-05
542.1147,-4.391272E-05
542.2147,-4.396263E-05
542.3146,-4.399842E-05
542.4146,-4.395416E-05
542.5146,-4.397393E-05
542.6146,-4.40003E-05
542.7145,-4.396452E-05
542.8145,-4.400124E-05
542.9145,-4.401349E-05
543.0145,-4.397676E-05
543.1144,-4.401254E-05
543.2144,-4.401066E-05
543.3144,-4.399089E-05
543.4144,-4.401726E-05
543.5143,-4.404362E-05
543.6143,-4.399842E-05
543.7143,-4.402855E-05
543.8143,-4.40634E-05
543.9142,-4.403703E-05
544.0142,-4.406246E-05
544.1142,-4.407658E-05
544.2142,-4.405304E-05
544.3141,-4.406999E-05
544.4141,-4.410107E-05
544.5141,-4.405022E-05
544.6141,-4.405775E-05
544.7141,-4.409824E-05
544.814,-4.410766E-05
544.914,-4.415004E-05
545.014,-4.414816E-05
545.114,-4.407753E-05
545.2139,-4.41152E-05
545.3139,-4.41152E-05
545.4139,-4.412555E-05
545.5139,-4.41199E-05
545.6138,-4.412744E-05
545.7138,-4.41039E-05
545.8138,-4.414627E-05
545.9138,-4.415946E-05
546.0137,-4.409918E-05
546.1137,-4.414439E-05
546.2137,-4.415946E-05
546.3137,-4.414816E-05
546.4136,-4.41491E-05
546.5136,-4.417547E-05
546.6136,-4.414627E-05
546.7136,-4.418865E-05
546.8135,-4.421408E-05
546.9135,-4.414721E-05
547.0135,-4.42056E-05
547.1135,-4.42169E-05
547.2134,-4.42169E-05
547.3134,-4.419995E-05
547.4134,-4.419619E-05
547.5134,-4.422255E-05
547.6133,-4.422161E-05
547.7133,-4.422538E-05
547.8133,-4.423008E-05
547.9133,-4.42282E-05
548.0132,-4.42508E-05
548.1132,-4.426587E-05
548.2132,-4.428282E-05
548.3132,-4.426493E-05
548.4131,-4.425269E-05
548.5131,-4.427529E-05
548.6131,-4.42913E-05
548.7131,-4.427811E-05
548.813,-4.427811E-05
548.913,-4.429318E-05
549.013,-4.429507E-05
549.113,-4.432237E-05
549.213,-4.430919E-05
549.3129,-4.430637E-05
549.4129,-4.430637E-05
549.5129,-4.433744E-05
549.6129,-4.433368E-05
549.7128,-4.433839E-05
549.8128,-4.435251E-05
549.9128,-4.432897E-05
550.0128,-4.436664E-05
550.1127,-4.436287E-05
550.2127,-4.433274E-05
550.3127,-4.435628E-05
550.4127,-4.44109E-05
550.5126,-4.442879E-05
550.6126,-4.437888E-05
550.7126,-4.438265E-05
550.8126,-4.441843E-05
550.9125,-4.440336E-05
551.0125,-4.44109E-05
551.1125,-4.440431E-05
551.2125,-4.44109E-05
551.3124,-4.441466E-05
551.4124,-4.442973E-05
551.5124,-4.440525E-05
551.6124,-4.442503E-05
551.7123,-4.449188E-05
551.8123,-4.445893E-05
551.9123,-4.448812E-05
552.0123,-4.448059E-05
552.1122,-4.449377E-05
552.2122,-4.449942E-05
552.3122,-4.450507E-05
552.4122,-4.452956E-05
552.5121,-4.452391E-05
552.6121,-4.452485E-05
552.7121,-4.45531E-05
552.8121,-4.452956E-05
552.912,-4.452391E-05
553.012,-4.454463E-05
553.112,-4.459642E-05
553.212,-4.45531E-05
553.312,-4.456157E-05
553.4119,-4.458795E-05
553.5119,-4.459736E-05
553.6119,-4.45823E-05
553.7119,-4.459171E-05
553.8118,-4.463974E-05
553.9118,-4.461431E-05
554.0118,-4.458135E-05
554.1118,-4.460961E-05
554.2117,-4.459171E-05
554.3117,-4.458889E-05
554.4117,-4.462185E-05
554.5117,-4.459642E-05
554.6116,-4.459359E-05
554.7116,-4.469154E-05
554.8116,-4.467741E-05
554.9116,-4.461243E-05
555.0115,-4.463691E-05
555.1115,-4.466799E-05
555.2115,-4.464445E-05
555.3115,-4.462938E-05
555.4114,-4.465198E-05
555.5114,-4.463786E-05
555.6114,-4.469248E-05
555.7114,-4.46727E-05
555.8113,-4.46501E-05
555.9113,-4.468965E-05
556.0113,-4.471602E-05
556.1113,-4.469719E-05
556.2112,-4.471037E-05
556.3112,-4.469154E-05
556.4112,-4.471979E-05
556.5112,-4.473485E-05
556.6111,-4.472167E-05
556.7111,-4.471225E-05
556.8111,-4.477441E-05
556.9111,-4.473957E-05
557.011,-4.475745E-05
557.111,-4.480077E-05
557.211,-4.476217E-05
557.311,-4.474427E-05
557.4109,-4.480925E-05
557.5109,-4.481773E-05
557.6109,-4.478006E-05
557.7109,-4.481396E-05
557.8109,-4.47923E-05
557.9108,-4.481019E-05
558.0108,-4.485539E-05
558.1108,-4.48667E-05
558.2108,-4.482338E-05
558.3107,-4.483751E-05
558.4107,-4.48714E-05
558.5107,-4.485822E-05
558.6107,-4.489872E-05
558.7106,-4.489024E-05
558.8106,-4.490719E-05
558.9106,-4.488742E-05
559.0106,-4.492696E-05
559.1105,-4.493921E-05
559.2105,-4.489872E-05
559.3105,-4.495804E-05
559.4105,-4.4975E-05
559.5104,-4.494581E-05
559.6104,-4.495428E-05
559.7104,-4.497782E-05
559.8104,-4.497782E-05
559.9103,-4.496087E-05
560.0103,-4.500231E-05
560.1103,-4.498253E-05
560.2103,-4.502397E-05
560.3102,-4.497311E-05
560.4102,-4.500231E-05
560.5102,-4.505033E-05
560.6102,-4.501832E-05
560.7101,-4.501549E-05
560.8101,-4.504563E-05
560.9101,-4.503244E-05
561.0101,-4.503903E-05
561.11,-4.506729E-05
561.21,-4.509742E-05
561.31,-4.505033E-05
561.41,-4.508518E-05
561.5099,-4.512473E-05
561.6099,-4.510401E-05
561.7099,-4.508235E-05
561.8099,-4.517747E-05
561.9099,-4.517558E-05
562.0098,-4.51737E-05
562.1098,-4.515581E-05
562.2098,-4.515863E-05
562.3098,-4.520572E-05
562.4097,-4.517276E-05
562.5097,-4.515675E-05
562.6097,-4.520007E-05
562.7097,-4.520478E-05
562.8096,-4.515393E-05
562.9096,-4.52076E-05
563.0096,-4.525846E-05
563.1096,-4.527823E-05
563.2095,-4.52707E-05
563.3095,-4.523774E-05
563.4095,-4.525186E-05
563.5095,-4.524057E-05
563.6094,-4.526882E-05
563.7094,-4.527635E-05
563.8094,-4.528294E-05
563.9094,-4.529801E-05
564.0093,-4.529424E-05
564.1093,-4.531779E-05
564.2093,-4.527258E-05
564.3093,-4.530742E-05
564.4092,-4.53159E-05
564.5092,-4.529142E-05
564.6092,-4.534415E-05
564.7092,-4.534321E-05
564.8091,-4.535546E-05
564.9091,-4.537523E-05
565.0091,-4.534886E-05
565.1091,-4.53677E-05
565.209,-4.538371E-05
565.309,-4.538747E-05
565.409,-4.541102E-05
565.509,-4.542703E-05
565.6089,-4.542326E-05
565.7089,-4.541761E-05
565.8089,-4.54355E-05
565.9089,-4.542797E-05
566.0089,-4.543173E-05
566.1088,-4.5476E-05
566.2088,-4.54468E-05
566.3088,-4.544303E-05
566.4088,-4.55099E-05
566.5087,-4.547788E-05
566.6087,-4.547506E-05
566.7087,-4.550802E-05
566.8087,-4.551461E-05
566.9086,-4.550048E-05
567.0086,-4.552308E-05
567.1086,-4.551932E-05
567.2086,-4.552497E-05
567.3085,-4.554851E-05
567.4085,-4.553815E-05
567.5085,-4.55438E-05
567.6085,-4.554757E-05
567.7084,-4.55664E-05
567.8084,-4.560313E-05
567.9084,-4.558712E-05
568.0084,-4.553439E-05
568.1083,-4.559089E-05
568.2083,-4.559936E-05
568.3083,-4.559183E-05
568.4083,-4.562573E-05
568.5082,-4.562291E-05
568.6082,-4.559277E-05
568.7082,-4.563703E-05
568.8082,-4.566717E-05
568.9081,-4.564174E-05
569.0081,-4.564268E-05
569.1081,-4.567565E-05
569.2081,-4.566905E-05
569.308,-4.569165E-05
569.408,-4.567377E-05
569.508,-4.57039E-05
569.608,-4.570013E-05
569.7079,-4.572744E-05
569.8079,-4.565399E-05
569.9079,-4.574345E-05
570.0079,-4.578865E-05
570.1078,-4.573215E-05
570.2078,-4.576417E-05
570.3078,-4.575663E-05
570.4078,-4.572367E-05
570.5078,-4.580749E-05
570.6077,-4.578583E-05
570.7077,-4.572744E-05
570.8077,-4.581408E-05
570.9077,-4.582726E-05
571.0076,-4.579619E-05
571.1076,-4.575004E-05
571.2076,-4.584892E-05
571.3076,-4.583762E-05
571.4075,-4.579807E-05
571.5075,-4.582726E-05
571.6075,-4.583292E-05
571.7075,-4.579807E-05
571.8074,-4.586964E-05
571.9074,-4.584139E-05
572.0074,-4.581314E-05
572.1074,-4.586305E-05
572.2073,-4.584892E-05
572.3073,-4.58395E-05
572.4073,-4.591296E-05
572.5073,-4.591955E-05
572.6072,-4.585175E-05
572.7072,-4.589318E-05
572.8072,-4.591861E-05
572.9072,-4.588848E-05
573.0071,-4.59252E-05
573.1071,-4.59318E-05
573.2071,-4.587529E-05
573.3071,-4.592615E-05
573.407,-4.597323E-05
573.507,-4.59478E-05
573.607,-4.596193E-05
573.707,-4.593462E-05
573.8069,-4.594404E-05
573.9069,-4.595816E-05
574.0069,-4.594875E-05
574.1069,-4.594215E-05
574.2068,-4.598924E-05
574.3068,-4.596947E-05
574.4068,-4.597041E-05
574.5068,-4.601184E-05
574.6068,-4.600713E-05
574.7067,-4.597323E-05
574.8067,-4.599206E-05
574.9067,-4.603256E-05
575.0067,-4.597982E-05
575.1066,-4.602314E-05
575.2066,-4.606269E-05
575.3066,-4.599489E-05
575.4066,-4.603726E-05
575.5065,-4.606929E-05
575.6065,-4.605704E-05
575.7065,-4.604292E-05
575.8065,-4.604386E-05
575.9064,-4.607023E-05
576.0064,-4.60401E-05
576.1064,-4.610225E-05
576.2064,-4.610319E-05
576.3063,-4.6074E-05
576.4063,-4.612673E-05
576.5063,-4.614463E-05
576.6063,-4.612768E-05
576.7062,-4.615593E-05
576.8062,-4.615875E-05
576.9062,-4.614274E-05
577.0062,-4.613615E-05
577.1061,-4.615404E-05
577.2061,-4.615404E-05
577.3061,-4.619642E-05
577.4061,-4.617288E-05
577.506,-4.613992E-05
577.606,-4.620019E-05
577.706,-4.618324E-05
577.806,-4.616064E-05
577.9059,-4.618136E-05
578.0059,-4.618512E-05
578.1059,-4.621337E-05
578.2059,-4.62388E-05
578.3058,-4.620584E-05
578.4058,-4.622656E-05
578.5058,-4.620866E-05
578.6058,-4.615687E-05
578.7057,-4.622562E-05
578.8057,-4.62388E-05
578.9057,-4.623127E-05
579.0057,-4.627082E-05
579.1057,-4.626329E-05
579.2056,-4.624351E-05
579.3056,-4.622468E-05
579.4056,-4.6284E-05
579.5056,-4.629248E-05
579.6055,-4.62388E-05
579.7055,-4.626329E-05
579.8055,-4.637535E-05
579.9055,-4.637441E-05
580.0054,-4.627458E-05
580.1054,-4.630095E-05
580.2054,-4.634051E-05
580.3054,-4.629531E-05
580.4053,-4.634333E-05
580.5053,-4.631226E-05
580.6053,-4.632544E-05
580.7053,-4.640831E-05
580.8052,-4.643562E-05
580.9052,-4.632544E-05
581.0052,-4.632544E-05
581.1052,-4.638383E-05
581.2051,-4.634615E-05
581.3051,-4.63763E-05
581.4051,-4.63697E-05
581.5051,-4.635745E-05
581.605,-4.635463E-05
581.705,-4.639607E-05
581.805,-4.636028E-05
581.905,-4.636028E-05
582.0049,-4.640831E-05
582.1049,-4.641208E-05
582.2049,-4.636405E-05
582.3049,-4.643562E-05
582.4048,-4.641208E-05
582.5048,-4.644598E-05
582.6048,-4.640549E-05
582.7048,-4.64102E-05
582.8047,-4.645352E-05
582.9047,-4.647141E-05
583.0047,-4.640831E-05
583.1047,-4.648271E-05
583.2047,-4.651567E-05
583.3046,-4.646387E-05
583.4046,-4.64667E-05
583.5046,-4.650625E-05
583.6046,-4.650154E-05
583.7045,-4.651472E-05
583.8045,-4.650719E-05
583.9045,-4.649966E-05
584.0045,-4.649777E-05
584.1044,-4.65298E-05
584.2044,-4.651755E-05
584.3044,-4.654581E-05
584.4044,-4.653168E-05
584.5043,-4.652226E-05
584.6043,-4.656087E-05
584.7043,-4.657217E-05
584.8043,-4.65571E-05
584.9042,-4.657123E-05
585.0042,-4.65571E-05
585.1042,-4.657688E-05
585.2042,-4.659948E-05
585.3041,-4.66202E-05
585.4041,-4.656746E-05
585.5041,-4.65976E-05
585.6041,-4.662302E-05
585.704,-4.662208E-05
585.804,-4.662585E-05
585.904,-4.661926E-05
586.004,-4.664751E-05
586.1039,-4.66833E-05
586.2039,-4.669554E-05
586.3039,-4.665598E-05
586.4039,-4.667294E-05
586.5038,-4.671343E-05
586.6038,-4.667388E-05
586.7038,-4.670684E-05
586.8038,-4.671908E-05
586.9037,-4.669271E-05
587.0037,-4.670684E-05
587.1037,-4.672944E-05
587.2037,-4.672473E-05
587.3036,-4.674734E-05
587.4036,-4.673791E-05
587.5036,-4.673603E-05
587.6036,-4.675675E-05
587.7036,-4.677559E-05
587.8035,-4.676617E-05
587.9035,-4.678029E-05
588.0035,-4.678595E-05
588.1035,-4.676334E-05
588.2034,-4.67963E-05
588.3034,-4.681326E-05
588.4034,-4.677747E-05
588.5034,-4.683021E-05
588.6033,-4.682738E-05
588.7033,-4.683491E-05
588.8033,-4.683869E-05
588.9033,-4.680949E-05
589.0032,-4.685846E-05
589.1032,-4.686694E-05
589.2032,-4.684622E-05
589.3032,-4.683491E-05
589.4031,-4.689895E-05
589.5031,-4.688012E-05
589.6031,-4.688577E-05
589.7031,-4.68886E-05
589.803,-4.689142E-05
589.903,-4.691402E-05
590.003,-4.692909E-05
590.103,-4.689707E-05
590.2029,-4.690743E-05
590.3029,-4.693286E-05
590.4029,-4.694886E-05
590.5029,-4.693003E-05
590.6028,-4.692909E-05
590.7028,-4.69338E-05
590.8028,-4.696299E-05
590.9028,-4.69451E-05
591.0027,-4.696488E-05
591.1027,-4.694792E-05
591.2027,-4.695546E-05
591.3027,-4.697147E-05
591.4026,-4.697523E-05
591.5026,-4.698747E-05
591.6026,-4.697335E-05
591.7026,-4.698465E-05
591.8026,-4.700725E-05
591.9025,-4.699218E-05
592.0025,-4.701008E-05
592.1025,-4.700537E-05
592.2025,-4.701196E-05
592.3024,-4.703079E-05
592.4024,-4.70468E-05
592.5024,-4.699407E-05
592.6024,-4.706093E-05
592.7023,-4.703456E-05
592.8023,-4.709483E-05
592.9023,-4.707788E-05
593.0023,-4.704869E-05
593.1022,-4.705434E-05
593.2022,-4.709106E-05
593.3022,-4.704587E-05
593.4022,-4.707788E-05
593.5021,-4.708353E-05
593.6021,-4.709483E-05
593.7021,-4.714851E-05
593.8021,-4.713627E-05
593.902,-4.708918E-05
594.002,-4.712026E-05
594.102,-4.712591E-05
594.202,-4.711555E-05
594.3019,-4.713439E-05
594.4019,-4.711744E-05
594.5019,-4.707223E-05
594.6019,-4.713627E-05
594.7018,-4.717771E-05
594.8018,-4.710519E-05
594.9018,-4.714851E-05
595.0018,-4.717205E-05
595.1017,-4.71438E-05
595.2017,-4.716358E-05
595.3017,-4.715322E-05
595.4017,-4.714192E-05
595.5016,-4.714098E-05
595.6016,-4.718242E-05
595.7016,-4.716923E-05
595.8016,-4.717394E-05
595.9016,-4.718053E-05
596.0015,-4.717959E-05
596.1015,-4.720408E-05
596.2015,-4.718712E-05
596.3015,-4.719654E-05
596.4014,-4.720784E-05
596.5014,-4.72182E-05
596.6014,-4.720219E-05
596.7014,-4.721067E-05
596.8013,-4.721349E-05
596.9013,-4.72069E-05
597.0013,-4.723892E-05
597.1013,-4.72003E-05
597.2012,-4.720219E-05
597.3012,-4.723609E-05
597.4012,-4.723798E-05
597.5012,-4.723609E-05
597.6011,-4.723609E-05
597.7011,-4.722197E-05
597.8011,-4.724834E-05
597.9011,-4.726623E-05
598.001,-4.724363E-05
598.101,-4.724739E-05
598.201,-4.730296E-05
598.301,-4.731049E-05
598.4009,-4.729448E-05
598.5009,-4.727659E-05
598.6009,-4.72813E-05
598.7009,-4.7286E-05
598.8008,-4.729542E-05
598.9008,-4.729542E-05
599.0008,-4.72973E-05
599.1008,-4.726811E-05
599.2007,-4.732085E-05
599.3007,-4.729637E-05
599.4007,-4.727282E-05
599.5007,-4.729637E-05
599.6006,-4.726717E-05
599.7006,-4.731143E-05
599.8006,-4.732179E-05
599.9006,-4.730955E-05
600.0005,-4.730767E-05
