EXPID. 1179
[电化学]: i-t : @ -1(V) X 60(sec)
起始电位 (V),-1
静置时间 (秒),0
运行时间 (秒),60
记录间隔,0.1
电解液 信息:
Ni(NO3)2,0.01
Fe(NO3)3,0.08
Co(NO3)2,0.01
0.1,-0.1005814
0.2,-0.1005814
0.3,-0.1005814
0.4,-0.1005814
0.5,-0.1005814
0.6,-0.1005814
0.7,-0.1005814
0.8000001,-0.1005814
0.9000001,-0.1005814
1,-0.1005814
1.1,-0.1005814
1.2,-0.1005814
1.3,-0.1005814
1.4,-0.09914219
1.5,-0.09004335
1.6,-0.08259294
1.7,-0.07719635
1.8,-0.07323707
1.9,-0.07021432
2,-0.06773316
2.1,-0.06567437
2.2,-0.06394535
2.3,-0.06240778
2.4,-0.06106042
2.5,-0.05989541
2.6,-0.05879975
2.7,-0.05779916
2.799999,-0.05688895
2.899999,-0.05598471
2.999999,-0.05516106
3.099999,-0.05435733
3.199999,-0.05355723
3.299999,-0.0528127
3.399999,-0.05208376
3.499999,-0.0513707
3.599999,-0.05069343
3.699999,-0.05003027
3.799999,-0.04938403
3.899998,-0.04875112
3.999998,-0.04813557
4.099998,-0.04755006
4.199998,-0.04697347
4.299998,-0.04640941
4.399998,-0.04590434
4.499998,-0.04539187
4.599998,-0.04490497
4.699998,-0.0444714
4.799998,-0.04403491
4.899998,-0.04363949
4.999998,-0.04327945
5.099998,-0.04293372
5.199997,-0.04258629
5.299997,-0.04228228
5.399997,-0.04199561
5.499997,-0.04171951
5.599997,-0.04146311
5.699997,-0.04122561
5.799997,-0.04100064
5.899997,-0.0407767
5.999997,-0.04058345
6.099997,-0.04040866
6.199996,-0.04021413
6.299996,-0.04006476
6.399996,-0.0399125
6.499996,-0.03975589
6.599996,-0.03964277
6.699996,-0.03951008
6.799996,-0.0393829
6.899996,-0.03929044
6.999996,-0.03918228
7.099996,-0.03908039
7.199996,-0.03900149
7.299995,-0.03892373
7.399995,-0.03883215
7.499995,-0.03876704
7.599995,-0.03870292
7.699995,-0.03863025
7.799995,-0.03856477
7.899995,-0.03851938
7.999995,-0.03845908
8.099995,-0.03840616
8.199995,-0.03836935
8.299995,-0.03832524
8.399996,-0.03827542
8.499996,-0.03825364
8.599997,-0.03821343
8.699997,-0.03818026
8.799997,-0.03815198
8.899998,-0.0381303
8.999998,-0.03810315
9.099998,-0.03808815
9.199999,-0.03807403
9.299999,-0.03805701
9.4,-0.03803501
9.5,-0.03802826
9.6,-0.03800661
9.700001,-0.0380084
9.800001,-0.03799994
9.900002,-0.03798544
10,-0.03799092
10.1,-0.0379834
10.2,-0.03797907
10.3,-0.03798351
10.4,-0.03797228
10.5,-0.03797142
10.6,-0.03797363
10.7,-0.03797746
10.8,-0.03797008
10.90001,-0.03797438
11.00001,-0.03797439
11.10001,-0.03797514
11.20001,-0.0379825
11.30001,-0.03799185
11.40001,-0.03799304
11.50001,-0.03799466
11.60001,-0.03800697
11.70001,-0.03801352
11.80001,-0.03801559
11.90001,-0.03802584
12.00001,-0.0380341
12.10001,-0.03803471
12.20001,-0.03804933
12.30001,-0.03806167
12.40001,-0.03805878
12.50001,-0.03807231
12.60001,-0.03808206
12.70001,-0.03808146
12.80001,-0.03809458
12.90001,-0.03811111
13.00001,-0.03811027
13.10001,-0.03812177
13.20001,-0.03813869
13.30001,-0.03814206
13.40001,-0.03815629
13.50002,-0.03817284
13.60002,-0.0381659
13.70002,-0.03817922
13.80002,-0.03819862
13.90002,-0.03819535
14.00002,-0.03821062
14.10002,-0.03823297
14.20002,-0.03822601
14.30002,-0.03823723
14.40002,-0.0382649
14.50002,-0.03826133
14.60002,-0.03826539
14.70002,-0.03829208
14.80002,-0.03829025
14.90002,-0.03829579
15.00002,-0.03832377
15.10002,-0.03832277
15.20002,-0.03832337
15.30002,-0.03835004
15.40002,-0.03834949
15.50002,-0.03834965
15.60002,-0.03837275
15.70002,-0.03837692
15.80002,-0.03837182
15.90002,-0.03839834
16.00002,-0.03839962
16.10003,-0.03840569
16.20003,-0.03841717
16.30003,-0.03842064
16.40003,-0.03842945
16.50003,-0.03844269
16.60003,-0.03844568
16.70003,-0.03846326
16.80003,-0.03847759
16.90003,-0.03848005
17.00003,-0.03849698
17.10003,-0.03850781
17.20003,-0.03850723
17.30003,-0.03852673
17.40003,-0.03853603
17.50003,-0.03853761
17.60003,-0.03854796
17.70003,-0.03856724
17.80003,-0.03856486
17.90003,-0.03857117
18.00003,-0.03859014
18.10003,-0.03859273
18.20003,-0.03859578
18.30003,-0.03861292
18.40003,-0.0386161
18.50003,-0.0386183
18.60003,-0.03863142
18.70004,-0.03864065
18.80004,-0.03863504
18.90004,-0.03865561
19.00004,-0.03866091
19.10004,-0.03866008
19.20004,-0.03867804
19.30004,-0.03867466
19.40004,-0.03868054
19.50004,-0.0386966
19.60004,-0.03869879
19.70004,-0.03870416
19.80004,-0.03871772
19.90004,-0.03872541
20.00004,-0.03871967
20.10004,-0.03873668
20.20004,-0.03874705
20.30004,-0.03874047
20.40004,-0.03875485
20.50004,-0.03876731
20.60004,-0.03875604
20.70004,-0.0387747
20.80004,-0.03878628
20.90004,-0.03878111
21.00004,-0.03879094
21.10004,-0.03880204
21.20004,-0.03880009
21.30005,-0.03881089
21.40005,-0.03882126
21.50005,-0.03881275
21.60005,-0.03883298
21.70005,-0.03883411
21.80005,-0.03883266
21.90005,-0.03885943
22.00005,-0.03884952
22.10005,-0.03885892
22.20005,-0.0388801
22.30005,-0.03887042
22.40005,-0.03888335
22.50005,-0.03890157
22.60005,-0.03889791
22.70005,-0.03890426
22.80005,-0.03891813
22.90005,-0.03892397
23.00005,-0.03893042
23.10005,-0.03894261
23.20005,-0.03894585
23.30005,-0.03895246
23.40005,-0.03895678
23.50005,-0.03896505
23.60005,-0.03897081
23.70005,-0.03897294
23.80005,-0.03898184
23.90005,-0.03898318
24.00006,-0.03898826
24.10006,-0.03899393
24.20006,-0.03898552
24.30006,-0.03900149
24.40006,-0.03900371
24.50006,-0.03900305
24.60006,-0.03901657
24.70006,-0.03901618
24.80006,-0.03901764
24.90006,-0.03902778
25.00006,-0.03902798
25.10006,-0.03903107
25.20006,-0.03903543
25.30006,-0.03903987
25.40006,-0.03904165
25.50006,-0.03905053
25.60006,-0.03905362
25.70006,-0.03904818
25.80006,-0.03906012
25.90006,-0.0390632
26.00006,-0.03906566
26.10006,-0.03907527
26.20006,-0.03907723
26.30006,-0.03908361
26.40006,-0.03908687
26.50006,-0.03909371
26.60007,-0.03909893
26.70007,-0.03909955
26.80007,-0.03910348
26.90007,-0.03911472
27.00007,-0.03911194
27.10007,-0.03911427
27.20007,-0.03912726
27.30007,-0.03912634
27.40007,-0.03912104
27.50007,-0.03914091
27.60007,-0.03913195
27.70007,-0.03913847
27.80007,-0.0391506
27.90007,-0.03914614
28.00007,-0.03914688
28.10007,-0.03915977
28.20007,-0.03915935
28.30007,-0.03916055
28.40007,-0.03916788
28.50007,-0.03917355
28.60007,-0.0391688
28.70007,-0.03918261
28.80007,-0.03918602
28.90007,-0.0391817
29.00007,-0.03919686
29.10007,-0.03919616
29.20008,-0.03918898
29.30008,-0.03920998
29.40008,-0.03920628
29.50008,-0.03919727
29.60008,-0.03921828
29.70008,-0.03921415
29.80008,-0.03920349
29.90008,-0.03922776
30.00008,-0.0392249
30.10008,-0.03921748
30.20008,-0.03923797
30.30008,-0.03924067
30.40008,-0.03923564
30.50008,-0.03925121
30.60008,-0.03925931
30.70008,-0.03924809
30.80008,-0.03926242
30.90008,-0.03927558
31.00008,-0.0392648
31.10008,-0.03927435
31.20008,-0.03929641
31.30008,-0.03927204
31.40008,-0.03928214
31.50008,-0.03930802
31.60008,-0.03928687
31.70008,-0.03929485
31.80009,-0.03932072
31.90009,-0.03930375
32.00008,-0.03930809
32.10008,-0.03932859
32.20008,-0.03931512
32.30008,-0.03931889
32.40008,-0.03933627
32.50008,-0.0393188
32.60007,-0.03932913
32.70007,-0.03934499
32.80007,-0.03932162
32.90007,-0.03934091
33.00007,-0.03936281
33.10007,-0.03935396
33.20007,-0.03936907
33.30006,-0.03938864
33.40006,-0.03938726
33.50006,-0.03938835
33.60006,-0.0394045
33.70006,-0.03940877
33.80006,-0.03939918
33.90005,-0.03941961
34.00005,-0.03942008
34.10005,-0.03941441
34.20005,-0.03943016
34.30005,-0.03942906
34.40005,-0.03943531
34.50005,-0.03945371
34.60004,-0.03945139
34.70004,-0.03945704
34.80004,-0.03947001
34.90004,-0.03946265
35.00004,-0.0394634
35.10004,-0.03947519
35.20004,-0.03947374
35.30003,-0.03947549
35.40003,-0.03948261
35.50003,-0.03948245
35.60003,-0.03947867
35.70003,-0.03948864
35.80003,-0.03949132
35.90002,-0.0394874
36.00002,-0.03949359
36.10002,-0.03949696
36.20002,-0.03949222
36.30002,-0.03950279
36.40002,-0.03950333
36.50002,-0.0395014
36.60001,-0.03950722
36.70001,-0.03950686
36.80001,-0.0395082
36.90001,-0.03951428
37.00001,-0.03951411
37.10001,-0.03951283
37.2,-0.03951949
37.3,-0.03952387
37.4,-0.03951634
37.5,-0.03952264
37.6,-0.03953153
37.7,-0.03952022
37.8,-0.03952644
37.89999,-0.03953991
37.99999,-0.03952495
38.09999,-0.0395302
38.19999,-0.03954289
38.29999,-0.03952982
38.39999,-0.03953279
38.49998,-0.03954498
38.59998,-0.03953225
38.69998,-0.03953463
38.79998,-0.0395445
38.89998,-0.03953798
38.99998,-0.03953566
39.09998,-0.0395474
39.19997,-0.039541
39.29997,-0.03954012
39.39997,-0.03955543
39.49997,-0.03954906
39.59997,-0.0395446
39.69997,-0.03956102
39.79996,-0.03954963
39.89996,-0.03955486
39.99996,-0.03955697
40.09996,-0.0395562
40.19996,-0.03955749
40.29996,-0.03955504
40.39996,-0.03956406
40.49995,-0.03955666
40.59995,-0.03955972
40.69995,-0.03956812
40.79995,-0.03956708
40.89995,-0.03956402
40.99995,-0.03956952
41.09995,-0.03957373
41.19994,-0.03956689
41.29994,-0.03957151
41.39994,-0.03957628
41.49994,-0.03957075
41.59994,-0.03957194
41.69994,-0.03958061
41.79993,-0.03957404
41.89993,-0.03957552
41.99993,-0.03958024
42.09993,-0.03957521
42.19993,-0.03957776
42.29993,-0.03958197
42.39993,-0.03957577
42.49992,-0.03957995
42.59992,-0.03958063
42.69992,-0.03957782
42.79992,-0.03958045
42.89992,-0.03958027
42.99992,-0.03957467
43.09991,-0.03958023
43.19991,-0.03958209
43.29991,-0.03957575
43.39991,-0.03958012
43.49991,-0.03958337
43.59991,-0.03957907
43.69991,-0.03957783
43.7999,-0.0395862
43.8999,-0.03958122
43.9999,-0.03957963
44.0999,-0.03958895
44.1999,-0.03958208
44.2999,-0.03958074
44.39989,-0.03959127
44.49989,-0.03958422
44.59989,-0.0395795
44.69989,-0.03959393
44.79989,-0.03958801
44.89989,-0.03957682
44.99989,-0.03959436
45.09988,-0.03958599
45.19988,-0.03957345
45.29988,-0.03958418
45.39988,-0.03957812
45.49988,-0.03956782
45.59988,-0.03958497
45.69987,-0.03957908
45.79987,-0.0395704
45.89987,-0.03958458
45.99987,-0.03957749
46.09987,-0.039572
46.19987,-0.03958329
46.29987,-0.03958007
46.39986,-0.03957762
46.49986,-0.03958428
46.59986,-0.03958332
46.69986,-0.03957674
46.79986,-0.03958374
46.89986,-0.03958707
46.99986,-0.0395777
47.09985,-0.0395782
47.19985,-0.03958627
47.29985,-0.03958111
47.39985,-0.03957527
47.49985,-0.039585
47.59985,-0.03957958
47.69984,-0.03957377
47.79984,-0.03958257
47.89984,-0.03958138
47.99984,-0.03956877
48.09984,-0.03957607
48.19984,-0.03957457
48.29984,-0.03956313
48.39983,-0.03957294
48.49983,-0.03957407
48.59983,-0.03956169
48.69983,-0.03957008
48.79983,-0.03957257
48.89983,-0.039558
48.99982,-0.03956514
49.09982,-0.03957173
49.19982,-0.03955819
49.29982,-0.03956343
49.39982,-0.03956949
49.49982,-0.03955425
49.59982,-0.03955845
49.69981,-0.03956507
49.79981,-0.03955196
49.89981,-0.03955425
49.99981,-0.03956423
50.09981,-0.03955113
50.19981,-0.03955233
50.2998,-0.03956104
50.3998,-0.03954903
50.4998,-0.03954899
50.5998,-0.03955793
50.6998,-0.03954673
50.7998,-0.03954516
50.8998,-0.03955438
50.99979,-0.03953387
51.09979,-0.03954329
51.19979,-0.03954782
51.29979,-0.03953257
51.39979,-0.03954484
51.49979,-0.03954402
51.59978,-0.03953311
51.69978,-0.03953542
51.79978,-0.03953833
51.89978,-0.0395337
51.99978,-0.03952793
52.09978,-0.03953212
52.19978,-0.039531
52.29977,-0.03952218
52.39977,-0.03953014
52.49977,-0.03952682
52.59977,-0.03951805
52.69977,-0.03953078
52.79977,-0.03952476
52.89977,-0.03951837
52.99976,-0.03953322
53.09976,-0.03951807
53.19976,-0.03950964
53.29976,-0.03951725
53.39976,-0.0395195
53.49976,-0.03951186
53.59975,-0.03952881
53.69975,-0.03952444
53.79975,-0.03952282
53.89975,-0.0395387
53.99975,-0.03952677
54.09975,-0.03952511
54.19975,-0.03953802
54.29974,-0.0395239
54.39974,-0.03952077
54.49974,-0.03953677
54.59974,-0.03952285
54.69974,-0.03951558
54.79974,-0.03953409
54.89973,-0.03951804
54.99973,-0.03951212
55.09973,-0.03953082
55.19973,-0.03951119
55.29973,-0.03950253
55.39973,-0.03952276
55.49973,-0.03950465
55.59972,-0.03949916
55.69972,-0.03951656
55.79972,-0.03950062
55.89972,-0.03949575
55.99972,-0.03950901
56.09972,-0.03949739
56.19971,-0.03949231
56.29971,-0.03950226
56.39971,-0.03949246
56.49971,-0.03948619
56.59971,-0.03949876
56.69971,-0.03949307
56.79971,-0.03948157
56.8997,-0.03949141
56.9997,-0.03948685
57.0997,-0.03947739
57.1997,-0.03948465
57.2997,-0.03948621
57.3997,-0.03947303
57.49969,-0.03947568
57.59969,-0.03947882
57.69969,-0.03946573
57.79969,-0.03946774
57.89969,-0.03947156
57.99969,-0.03946183
58.09969,-0.0394676
58.19968,-0.0394605
58.29968,-0.03945671
58.39968,-0.03946743
58.49968,-0.03945635
58.59968,-0.03945183
58.69968,-0.03946581
58.79967,-0.03945079
58.89967,-0.03944743
58.99967,-0.03946036
59.09967,-0.03944978
59.19967,-0.03944521
59.29967,-0.03946012
59.39967,-0.03945784
59.49966,-0.03944639
59.59966,-0.03946191
59.69966,-0.0394604
59.79966,-0.03944826
59.89966,-0.03946147
59.99966,-0.03946003
