EXPID. 1037
[电化学]: i-t : @ 0(V) X 600(sec)
起始电位 (V),0
静置时间 (秒),0
运行时间 (秒),600
记录间隔,0.1
电解液 信息:
HNO3,0.4
0.1,-0.01005814
0.2,-0.008296361
0.3,0.005212809
0.4,0.006395525
0.5,0.004216659
0.6,0.0009388019
0.7,-0.001079825
0.8000001,-0.002201942
0.9000001,-0.002796265
1,-0.003023783
1.1,-0.003047481
1.2,-0.002990521
1.3,-0.002909202
1.4,-0.002828764
1.5,-0.002748531
1.6,-0.002681958
1.7,-0.002621244
1.8,-0.002550425
1.9,-0.002497732
2,-0.002443223
2.1,-0.002386184
2.2,-0.002339442
2.3,-0.002289341
2.4,-0.002235128
2.5,-0.002192086
2.6,-0.002143473
2.7,-0.002094074
2.799999,-0.002051079
2.899999,-0.00200605
2.999999,-0.001961733
3.099999,-0.001917133
3.199999,-0.001870909
3.299999,-0.001826406
3.399999,-0.001779431
3.499999,-0.001733941
3.599999,-0.001689776
3.699999,-0.001647793
3.799999,-0.001607985
3.899998,-0.001570016
3.999998,-0.001535778
4.099998,-0.001502834
4.199998,-0.001473053
4.299998,-0.001444748
4.399998,-0.00141779
4.499998,-0.001393032
4.599998,-0.001370111
4.699998,-0.001346809
4.799998,-0.001326629
4.899998,-0.001306789
4.999998,-0.001287385
5.099998,-0.001269696
5.199997,-0.001252968
5.299997,-0.001235903
5.399997,-0.001220584
5.499997,-0.001205844
5.599997,-0.001191239
5.699997,-0.001177526
5.799997,-0.001164454
5.899997,-0.001151702
5.999997,-0.001139317
6.099997,-0.001128016
6.199996,-0.001115943
6.299996,-0.001105313
6.399996,-0.001094921
6.499996,-0.001084253
6.599996,-0.001074343
6.699996,-0.001065116
6.799996,-0.001055397
6.899996,-0.001046637
6.999996,-0.001037882
7.099996,-0.001029086
7.199996,-0.001021064
7.299995,-0.001012877
7.399995,-0.001004854
7.499995,-0.000997202
7.599995,-0.0009902859
7.699995,-0.0009824667
7.799995,-0.0009757258
7.899995,-0.0009687928
7.999995,-0.0009617797
8.099995,-0.0009558694
8.199995,-0.0009485823
8.299995,-0.000943172
8.399996,-0.0009370131
8.499996,-0.0009306451
8.599997,-0.0009250522
8.699997,-0.0009194074
8.799997,-0.0009133228
8.899998,-0.0009082978
8.999998,-0.0009027623
9.099998,-0.0008971543
9.199999,-0.0008923204
9.299999,-0.000886751
9.4,-0.0008815055
9.5,-0.0008770342
9.6,-0.0008718999
9.700001,-0.0008666922
9.800001,-0.0008626587
9.900002,-0.0008576891
10,-0.0008530784
10.1,-0.0008487757
10.2,-0.0008442431
10.3,-0.0008397285
10.4,-0.0008356903
10.5,-0.0008315429
10.6,-0.0008271263
10.7,-0.000823315
10.8,-0.0008192533
10.90001,-0.0008151917
11.00001,-0.0008115189
11.10001,-0.0008075872
11.20001,-0.0008037487
11.30001,-0.0008001202
11.40001,-0.0007962958
11.50001,-0.0007925571
11.60001,-0.0007891998
11.70001,-0.0007855798
11.80001,-0.0007822103
11.90001,-0.0007787306
12.00001,-0.0007756323
12.10001,-0.0007723438
12.20001,-0.0007688368
12.30001,-0.0007655483
12.40001,-0.0007628031
12.50001,-0.0007595165
12.60001,-0.0007569154
12.70001,-0.0007538632
12.80001,-0.0007506991
12.90001,-0.0007479323
13.00001,-0.0007449131
13.10001,-0.0007415756
13.20001,-0.0007390696
13.30001,-0.0007362595
13.40001,-0.0007331763
13.50002,-0.0007305554
13.60002,-0.0007277114
13.70002,-0.0007249907
13.80002,-0.0007222785
13.90002,-0.0007197509
14.00002,-0.0007166225
14.10002,-0.0007141514
14.20002,-0.000711604
14.30002,-0.0007087383
14.40002,-0.0007065036
14.50002,-0.0007040486
14.60002,-0.0007013354
14.70002,-0.0006988332
14.80002,-0.0006965909
14.90002,-0.0006938882
15.00002,-0.0006916271
15.10002,-0.000689432
15.20002,-0.0006868054
15.30002,-0.0006846169
15.40002,-0.0006824057
15.50002,-0.0006799242
15.60002,-0.0006778298
15.70002,-0.0006756167
15.80002,-0.0006734055
15.90002,-0.0006711784
16.00002,-0.0006689766
16.10003,-0.0006671986
16.20003,-0.0006650863
16.30003,-0.0006636378
16.40003,-0.0006615378
16.50003,-0.0006595875
16.60003,-0.0006577294
16.70003,-0.0006554307
16.80003,-0.00065313
16.90003,-0.0006511336
17.00003,-0.0006489563
17.10003,-0.0006466745
17.20003,-0.0006449238
17.30003,-0.0006430667
17.40003,-0.0006408414
17.50003,-0.0006391246
17.60003,-0.0006372251
17.70003,-0.0006350215
17.80003,-0.0006332502
17.90003,-0.0006315606
18.00003,-0.0006293862
18.10003,-0.0006276025
18.20003,-0.0006258745
18.30003,-0.0006237621
18.40003,-0.000622034
18.50003,-0.0006203663
18.60003,-0.0006183717
18.70004,-0.0006167801
18.80004,-0.0006149099
18.90004,-0.0006131084
19.00004,-0.0006115064
19.10004,-0.000609575
19.20004,-0.0006077565
19.30004,-0.0006061725
19.40004,-0.0006044378
19.50004,-0.000602626
19.60004,-0.0006010617
19.70004,-0.0005994636
19.80004,-0.0005975867
19.90004,-0.0005963116
20.00004,-0.0005945421
20.10004,-0.0005928705
20.20004,-0.0005912705
20.30004,-0.0005895236
20.40004,-0.00058795
20.50004,-0.0005864357
20.60004,-0.0005850099
20.70004,-0.0005834589
20.80004,-0.000581712
20.90004,-0.0005803597
21.00004,-0.0005787454
21.10004,-0.0005771304
21.20004,-0.0005757423
21.30005,-0.0005742092
21.40005,-0.0005725414
21.50005,-0.0005714584
21.60005,-0.0005700712
21.70005,-0.000568394
21.80005,-0.0005668637
21.90005,-0.0005657769
22.00005,-0.0005639801
22.10005,-0.0005625807
22.20005,-0.0005613226
22.30005,-0.0005598459
22.40005,-0.0005583231
22.50005,-0.0005570594
22.60005,-0.0005554886
22.70005,-0.0005542549
22.80005,-0.0005527462
22.90005,-0.0005514071
23.00005,-0.0005501367
23.10005,-0.0005487147
23.20005,-0.0005472493
23.30005,-0.0005460543
23.40005,-0.00054449
23.50005,-0.0005434193
23.60005,-0.0005422675
23.70005,-0.0005406798
23.80005,-0.0005395064
23.90005,-0.0005382021
24.00006,-0.0005368413
24.10006,-0.0005356245
24.20006,-0.0005345067
24.30006,-0.0005330198
24.40006,-0.000531836
24.50006,-0.0005306833
24.60006,-0.0005294817
24.70006,-0.0005281586
24.80006,-0.0005274805
24.90006,-0.0005260387
25.00006,-0.0005248106
25.10006,-0.0005236476
25.20006,-0.000522349
25.30006,-0.0005210597
25.40006,-0.000519973
25.50006,-0.0005186197
25.60006,-0.0005174199
25.70006,-0.0005163313
25.80006,-0.0005150007
25.90006,-0.0005138226
26.00006,-0.0005127791
26.10006,-0.0005116556
26.20006,-0.0005103956
26.30006,-0.0005092429
26.40006,-0.0005081166
26.50006,-0.000506883
26.60007,-0.0005057999
26.70007,-0.0005046463
26.80007,-0.0005034719
26.90007,-0.000502373
27.00007,-0.0005012957
27.10007,-0.0005002644
27.20007,-0.0004989912
27.30007,-0.0004979534
27.40007,-0.0004968855
27.50007,-0.0004956292
27.60007,-0.0004947318
27.70007,-0.000493742
27.80007,-0.0004926072
27.90007,-0.0004916175
28.00007,-0.0004905703
28.10007,-0.0004894119
28.20007,-0.0004884787
28.30007,-0.0004874268
28.40007,-0.0004862854
28.50007,-0.0004853013
28.60007,-0.0004842635
28.70007,-0.0004832671
28.80007,-0.0004823555
28.90007,-0.0004813328
29.00007,-0.0004800257
29.10007,-0.0004791282
29.20008,-0.0004781516
29.30008,-0.0004771826
29.40008,-0.0004760713
29.50008,-0.000475059
29.60008,-0.0004741013
29.70008,-0.0004730936
29.80008,-0.0004720954
29.90008,-0.0004710567
30.00008,-0.0004701762
30.10008,-0.0004690978
30.20008,-0.0004681034
30.30008,-0.0004671343
30.40008,-0.000466299
30.50008,-0.0004654986
30.60008,-0.0004642903
30.70008,-0.0004633373
30.80008,-0.000462485
30.90008,-0.000461483
31.00008,-0.0004607042
31.10008,-0.0004596749
31.20008,-0.0004586616
31.30008,-0.0004577227
31.40008,-0.0004567593
31.50008,-0.0004557281
31.60008,-0.000454841
31.70008,-0.0004540989
31.80009,-0.0004530008
31.90009,-0.0004521523
32.00008,-0.0004511974
32.10008,-0.0004503009
32.20008,-0.0004494147
32.30008,-0.0004484475
32.40008,-0.0004474974
32.50008,-0.0004465716
32.60007,-0.0004457561
32.70007,-0.0004448436
32.80007,-0.0004439225
32.90007,-0.0004430684
33.00007,-0.0004422322
33.10007,-0.0004415823
33.20007,-0.0004407027
33.30006,-0.0004397394
33.40006,-0.000438905
33.50006,-0.0004381516
33.60006,-0.0004372061
33.70006,-0.0004364217
33.80006,-0.0004357417
33.90005,-0.0004348452
34.00005,-0.0004341351
34.10005,-0.0004333262
34.20005,-0.0004323731
34.30005,-0.0004315576
34.40005,-0.0004309097
34.50005,-0.0004301987
34.60004,-0.0004296261
34.70004,-0.0004292249
34.80004,-0.0004282747
34.90004,-0.0004272897
35.00004,-0.0004263423
35.10004,-0.000425522
35.20004,-0.000424699
35.30003,-0.0004238637
35.40003,-0.000423017
35.50003,-0.0004225641
35.60003,-0.0004218371
35.70003,-0.0004210752
35.80003,-0.0004202361
35.90002,-0.0004194064
36.00002,-0.0004186182
36.10002,-0.0004177113
36.20002,-0.0004168186
36.30002,-0.000416084
36.40002,-0.0004152054
36.50002,-0.0004145735
36.60001,-0.0004137598
36.70001,-0.0004129114
36.80001,-0.0004123764
36.90001,-0.000411447
37.00001,-0.0004105024
37.10001,-0.000409716
37.2,-0.0004090361
37.3,-0.0004081386
37.4,-0.0004074549
37.5,-0.0004067251
37.6,-0.0004058681
37.7,-0.0004050573
37.8,-0.0004044988
37.89999,-0.0004035844
37.99999,-0.0004027821
38.09999,-0.0004021125
38.19999,-0.0004012019
38.29999,-0.0004005163
38.39999,-0.0003998514
38.49998,-0.0003989793
38.59998,-0.000398209
38.69998,-0.0003975234
38.79998,-0.0003967766
38.89998,-0.00039606
38.99998,-0.0003952105
39.09998,-0.0003945193
39.19997,-0.0003938102
39.29997,-0.0003932169
39.39997,-0.0003924268
39.49997,-0.0003916885
39.59997,-0.0003910603
39.69997,-0.0003903022
39.79996,-0.0003895903
39.89996,-0.000388899
39.99996,-0.0003881513
40.09996,-0.0003874441
40.19996,-0.0003868338
40.29996,-0.0003861134
40.39996,-0.0003854203
40.49995,-0.0003848044
40.59995,-0.0003840991
40.69995,-0.000383438
40.79995,-0.0003830029
40.89995,-0.000382209
40.99995,-0.0003813963
41.09995,-0.0003807427
41.19994,-0.0003801174
41.29994,-0.0003793198
41.39994,-0.0003786559
41.49994,-0.0003780484
41.59994,-0.0003774891
41.69994,-0.0003768025
41.79993,-0.0003761593
41.89993,-0.000375389
41.99993,-0.0003747335
42.09993,-0.0003742307
42.19993,-0.0003734716
42.29993,-0.0003728275
42.39993,-0.000372221
42.49992,-0.0003715138
42.59992,-0.0003709271
42.69992,-0.0003703187
42.79992,-0.0003696557
42.89992,-0.0003690135
42.99992,-0.0003685059
43.09991,-0.000367648
43.19991,-0.0003670132
43.29991,-0.0003664981
43.39991,-0.0003657136
43.49991,-0.0003651759
43.59991,-0.0003646089
43.69991,-0.0003638716
43.7999,-0.0003634535
43.8999,-0.0003628611
43.9999,-0.0003621256
44.0999,-0.0003615794
44.1999,-0.0003609729
44.2999,-0.0003602648
44.39989,-0.0003597591
44.49989,-0.000359097
44.59989,-0.0003586921
44.69989,-0.0003585
44.79989,-0.0003576515
44.89989,-0.0003570092
44.99989,-0.0003564027
45.09988,-0.0003556908
45.19988,-0.0003549496
45.29988,-0.0003543469
45.39988,-0.0003537706
45.49988,-0.0003533939
45.59988,-0.0003527517
45.69987,-0.0003520341
45.79987,-0.0003514794
45.89987,-0.0003509812
45.99987,-0.0003502598
46.09987,-0.0003496213
46.19987,-0.0003491034
46.29987,-0.000348496
46.39986,-0.0003479413
46.49986,-0.0003472962
46.59986,-0.0003466878
46.69986,-0.000346151
46.79986,-0.0003455841
46.89986,-0.0003449475
46.99986,-0.0003444409
47.09985,-0.0003438476
47.19985,-0.0003432891
47.29985,-0.0003427382
47.39985,-0.0003421534
47.49985,-0.0003415629
47.59985,-0.0003410582
47.69984,-0.00034043
47.79984,-0.0003398904
47.89984,-0.000339397
47.99984,-0.0003386925
48.09984,-0.0003381784
48.19984,-0.0003376359
48.29984,-0.0003370681
48.39983,-0.0003364455
48.49983,-0.0003359709
48.59983,-0.0003353287
48.69983,-0.0003347994
48.79983,-0.0003342551
48.89983,-0.0003336948
48.99982,-0.000333141
49.09982,-0.0003328707
49.19982,-0.00033214
49.29982,-0.0003315081
49.39982,-0.0003309854
49.49982,-0.0003304383
49.59982,-0.0003298403
49.69981,-0.0003294203
49.79981,-0.0003288166
49.89981,-0.0003282836
49.99981,-0.0003278363
50.09981,-0.0003271893
50.19981,-0.0003266506
50.2998,-0.0003262212
50.3998,-0.0003256439
50.4998,-0.000325157
50.5998,-0.0003246645
50.6998,-0.0003240335
50.7998,-0.0003235052
50.8998,-0.0003230579
50.99979,-0.000322441
51.09979,-0.0003219646
51.19979,-0.0003215219
51.29979,-0.0003208731
51.39979,-0.0003204164
51.49979,-0.0003199606
51.59978,-0.0003193701
51.69978,-0.000318903
51.79978,-0.0003184369
51.89978,-0.0003178115
51.99978,-0.0003173623
52.09978,-0.0003169593
52.19978,-0.0003163028
52.29977,-0.0003158583
52.39977,-0.0003153969
52.49977,-0.0003148375
52.59977,-0.0003143488
52.69977,-0.0003139307
52.79977,-0.0003133411
52.89977,-0.0003128382
52.99976,-0.0003123636
53.09976,-0.0003118569
53.19976,-0.0003113748
53.29976,-0.0003108964
53.39976,-0.0003103172
53.49976,-0.0003099528
53.59975,-0.0003094894
53.69975,-0.0003089197
53.79975,-0.0003085204
53.89975,-0.0003081616
53.99975,-0.000307508
54.09975,-0.0003070749
54.19975,-0.0003065833
54.29974,-0.0003059937
54.39974,-0.0003056133
54.49974,-0.0003050812
54.59974,-0.0003045086
54.69974,-0.0003041366
54.79974,-0.0003039803
54.89973,-0.0003033588
54.99973,-0.0003028644
55.09973,-0.000302482
55.19973,-0.0003018934
55.29973,-0.0003014998
55.39973,-0.0003010723
55.49973,-0.0003004874
55.59972,-0.0003000618
55.69972,-0.0002996172
55.79972,-0.0002990607
55.89972,-0.000298653
55.99972,-0.0002982988
56.09972,-0.0002977056
56.19971,-0.0002973063
56.29971,-0.0002968542
56.39971,-0.0002963777
56.49971,-0.000296018
56.59971,-0.0002956253
56.69971,-0.0002951328
56.79971,-0.0002945385
56.8997,-0.0002941675
56.9997,-0.0002937192
57.0997,-0.00029319
57.1997,-0.0002927615
57.2997,-0.0002922859
57.3997,-0.000291848
57.49969,-0.0002913847
57.59969,-0.0002909194
57.69969,-0.0002905117
57.79969,-0.0002900483
57.89969,-0.0002896877
57.99969,-0.0002892224
58.09969,-0.0002887375
58.19968,-0.0002883645
58.29968,-0.0002878353
58.39968,-0.0002873898
58.49968,-0.0002870103
58.59968,-0.0002865432
58.69968,-0.0002860601
58.79967,-0.0002856665
58.89967,-0.0002852041
58.99967,-0.0002847925
59.09967,-0.0002844083
59.19967,-0.0002839968
59.29967,-0.0002836304
59.39967,-0.0002832613
59.49966,-0.000282716
59.59966,-0.0002822621
59.69966,-0.0002818939
59.79966,-0.0002813966
59.89966,-0.0002810972
59.99966,-0.000280615
60.09966,-0.0002802949
60.19965,-0.0002803363
60.29965,-0.000279646
60.39965,-0.0002790781
60.49965,-0.0002786129
60.59965,-0.0002782287
60.69965,-0.0002777776
60.79964,-0.0002773726
60.89964,-0.0002769536
60.99964,-0.0002766193
61.09964,-0.000276527
61.19964,-0.0002759252
61.29964,-0.000275411
61.39964,-0.0002749515
61.49963,-0.0002745399
61.59963,-0.0002741152
61.69963,-0.0002738082
61.79963,-0.0002733128
61.89963,-0.0002728975
61.99963,-0.0002725321
62.09962,-0.0002721639
62.19962,-0.0002717345
62.29962,-0.0002713795
62.39962,-0.0002709161
62.49962,-0.0002705206
62.59962,-0.0002701505
62.69962,-0.0002697352
62.79961,-0.000269317
62.89961,-0.0002690223
62.99961,-0.0002685788
63.09961,-0.0002681164
63.19961,-0.0002679242
63.29961,-0.0002673997
63.3996,-0.000266943
63.4996,-0.0002666934
63.5996,-0.0002662084
63.6996,-0.0002657978
63.7996,-0.0002654371
63.8996,-0.000265068
63.9996,-0.0002646536
64.09959,-0.0002643607
64.19959,-0.0002638654
64.29959,-0.0002636431
64.39959,-0.0002634181
64.49959,-0.0002629105
64.59959,-0.0002624076
64.69958,-0.0002619697
64.79958,-0.0002615713
64.89958,-0.0002612126
64.99958,-0.0002608933
65.09958,-0.0002604337
65.19958,-0.0002601239
65.29958,-0.0002597529
65.39957,-0.0002593507
65.49957,-0.0002589561
65.59957,-0.0002585719
65.69957,-0.0002582244
65.79957,-0.0002578844
65.89957,-0.0002575021
65.99957,-0.0002570963
66.09956,-0.0002567694
66.19956,-0.0002563523
66.29956,-0.0002560113
66.39956,-0.0002556714
66.49956,-0.000255306
66.59956,-0.0002548417
66.69955,-0.0002545818
66.79955,-0.0002542965
66.89955,-0.0002538096
66.99955,-0.0002534319
67.09955,-0.0002529808
67.19955,-0.0002526597
67.29955,-0.0002524262
67.39954,-0.0002519854
67.49954,-0.0002516483
67.59954,-0.000251363
67.69954,-0.000250893
67.79954,-0.000250571
67.89954,-0.0002502658
67.99953,-0.0002498976
68.09953,-0.0002496245
68.19953,-0.0002491819
68.29953,-0.0002487195
68.39953,-0.0002486536
68.49953,-0.0002481441
68.59953,-0.000247613
68.69952,-0.0002473239
68.79952,-0.0002470244
68.89952,-0.0002465827
68.99952,-0.0002463209
69.09952,-0.0002459866
69.19952,-0.0002455694
69.29951,-0.0002453001
69.39951,-0.0002449338
69.49951,-0.0002444742
69.59951,-0.000244203
69.69951,-0.0002439158
69.79951,-0.0002434976
69.89951,-0.0002432292
69.9995,-0.0002429571
70.0995,-0.0002424975
70.1995,-0.0002421472
70.2995,-0.0002418317
70.3995,-0.0002414663
70.4995,-0.0002411405
70.59949,-0.0002407788
70.69949,-0.0002404135
70.79949,-0.0002400688
70.89949,-0.0002397326
70.99949,-0.0002395329
71.09949,-0.0002392664
71.19949,-0.0002389585
71.29948,-0.0002385639
71.39948,-0.0002381156
71.49948,-0.0002378538
71.59948,-0.000237528
71.69948,-0.0002371767
71.79948,-0.0002368565
71.89948,-0.0002365938
71.99947,-0.0002362576
72.09947,-0.0002358856
72.19947,-0.0002357217
72.29947,-0.0002352725
72.39947,-0.000234877
72.49947,-0.0002346454
72.59946,-0.0002343204
72.69946,-0.0002339569
72.79946,-0.0002336914
72.89946,-0.0002332638
72.99946,-0.0002329954
73.09946,-0.0002328288
73.19946,-0.0002324021
73.29945,-0.0002321017
73.39945,-0.000231806
73.49945,-0.0002315188
73.59945,-0.0002312325
73.69945,-0.0002309246
73.79945,-0.0002305865
73.89944,-0.0002305102
73.99944,-0.0002301589
74.09944,-0.0002296617
74.19944,-0.0002294347
74.29944,-0.000229108
74.39944,-0.0002288047
74.49944,-0.0002286286
74.59943,-0.0002283047
74.69943,-0.0002279016
74.79943,-0.0002276172
74.89943,-0.0002272584
74.99943,-0.0002268459
75.09943,-0.0002265436
75.19942,-0.0002262799
75.29942,-0.0002259343
75.39942,-0.0002257149
75.49942,-0.0002254371
75.59942,-0.00022505
75.69942,-0.0002247675
75.79942,-0.0002244445
75.89941,-0.0002241045
75.99941,-0.0002238051
76.09941,-0.0002235273
76.19941,-0.0002231892
76.29941,-0.0002229669
76.39941,-0.0002226157
76.4994,-0.0002222437
76.5994,-0.0002220186
76.6994,-0.0002216476
76.7994,-0.0002213415
76.8994,-0.0002211484
76.9994,-0.0002207454
77.0994,-0.00022038
77.19939,-0.0002201342
77.29939,-0.0002198423
77.39939,-0.0002194938
77.49939,-0.0002192565
77.59939,-0.0002188996
77.69939,-0.0002185681
77.79939,-0.0002183459
77.89938,-0.0002180615
77.99938,-0.0002177545
78.09938,-0.000217471
78.19938,-0.0002171941
78.29938,-0.0002169559
78.39938,-0.0002166225
78.49937,-0.00021642
78.59937,-0.0002160349
78.69937,-0.0002156864
78.79937,-0.0002154519
78.89937,-0.0002153078
78.99937,-0.0002149302
79.09937,-0.0002145921
79.19936,-0.0002143896
79.29936,-0.0002141467
79.39936,-0.0002137737
79.49936,-0.0002134432
79.59936,-0.000213139
79.69936,-0.0002128537
79.79935,-0.0002126079
79.89935,-0.0002123395
79.99935,-0.0002120099
80.09935,-0.0002118291
80.19935,-0.0002114929
80.29935,-0.000211233
80.39935,-0.0002110201
80.49934,-0.0002106934
80.59934,-0.000210441
80.69934,-0.0002101999
80.79934,-0.0002098354
80.89934,-0.0002095868
80.99934,-0.0002093241
81.09933,-0.000209066
81.19933,-0.0002088542
81.29933,-0.0002085716
81.39933,-0.0002081808
81.49933,-0.0002080292
81.59933,-0.0002077956
81.69933,-0.0002074086
81.79932,-0.0002071873
81.89932,-0.0002069377
81.99932,-0.0002065752
82.09932,-0.0002063595
82.19932,-0.0002061335
82.29932,-0.0002057935
82.39931,-0.0002056221
82.49931,-0.0002054451
82.59931,-0.0002050882
82.69931,-0.0002049281
82.79931,-0.0002046399
82.89931,-0.0002042736
82.99931,-0.0002040824
83.0993,-0.0002038545
83.1993,-0.0002035691
83.2993,-0.0002032471
83.3993,-0.0002030267
83.4993,-0.0002027367
83.5993,-0.0002025963
83.6993,-0.0002023892
83.79929,-0.0002019805
83.89929,-0.0002018222
83.99929,-0.0002015407
84.09929,-0.0002012789
84.19929,-0.0002011301
84.29929,-0.0002007854
84.39928,-0.0002005255
84.49928,-0.0002003042
84.59928,-0.0002000141
84.69928,-0.0001997382
84.79928,-0.0001994886
84.89928,-0.0001992306
84.99928,-0.000198966
85.09927,-0.0001987833
85.19927,-0.0001985394
85.29927,-0.0001982305
85.39927,-0.0001980167
85.49927,-0.0001977832
85.59927,-0.000197462
85.69926,-0.0001972548
85.79926,-0.0001969827
85.89926,-0.0001966719
85.99926,-0.0001964742
86.09926,-0.0001962453
86.19926,-0.000195911
86.29926,-0.0001957434
86.39925,-0.0001955748
86.49925,-0.0001952037
86.59925,-0.0001949533
86.69925,-0.0001947564
86.79925,-0.0001944513
86.89925,-0.0001942488
86.99924,-0.0001940096
87.09924,-0.0001936744
87.19924,-0.0001934842
87.29924,-0.0001932958
87.39924,-0.0001929897
87.49924,-0.0001928212
87.59924,-0.0001925744
87.69923,-0.0001922853
87.79923,-0.0001920339
87.89923,-0.0001918248
87.99923,-0.0001915649
88.09923,-0.0001913813
88.19923,-0.0001911402
88.29922,-0.0001909142
88.39922,-0.0001907946
88.49922,-0.0001905309
88.59922,-0.0001902399
88.69922,-0.0001900628
88.79922,-0.0001897295
88.89922,-0.0001895769
88.99921,-0.0001895844
89.09921,-0.0001892925
89.19921,-0.0001890363
89.29921,-0.0001888207
89.39921,-0.0001884779
89.49921,-0.0001881869
89.59921,-0.0001879628
89.6992,-0.0001876963
89.7992,-0.0001875268
89.8992,-0.0001873186
89.9992,-0.0001871246
90.0992,-0.0001870446
90.1992,-0.0001867668
90.29919,-0.0001864136
90.39919,-0.000186197
90.49919,-0.0001860614
90.59919,-0.0001857619
90.69919,-0.0001855246
90.79919,-0.0001852836
90.89919,-0.0001850218
90.99918,-0.0001848908
91.09918,-0.0001847807
91.19918,-0.0001844464
91.29918,-0.0001842401
91.39918,-0.0001840169
91.49918,-0.0001837532
91.59917,-0.000183531
91.69917,-0.0001833897
91.79917,-0.000183127
91.89917,-0.0001828802
91.99917,-0.0001826646
92.09917,-0.0001825092
92.19917,-0.0001822116
92.29916,-0.0001819752
92.39916,-0.0001817765
92.49916,-0.0001815797
92.59916,-0.0001813415
92.69916,-0.0001811362
92.79916,-0.0001808584
92.89915,-0.0001806474
92.99915,-0.0001805005
93.09915,-0.0001801775
93.19915,-0.0001799552
93.29915,-0.0001798337
93.39915,-0.0001795456
93.49915,-0.0001793403
93.59914,-0.0001792254
93.69914,-0.000178941
93.79914,-0.0001788487
93.89914,-0.0001786038
93.99914,-0.0001782912
94.09914,-0.0001780906
94.19913,-0.0001778872
94.29913,-0.0001776329
94.39913,-0.0001774361
94.49913,-0.0001772393
94.59913,-0.000177001
94.69913,-0.0001768616
94.79913,-0.0001767562
94.89912,-0.0001764162
94.99912,-0.000176323
95.09912,-0.0001760593
95.19912,-0.000175821
95.29912,-0.0001757645
95.39912,-0.0001754679
95.49911,-0.0001751835
95.59911,-0.0001749989
95.69911,-0.0001747832
95.79911,-0.0001745827
95.89911,-0.0001744348
95.99911,-0.0001742785
96.09911,-0.0001740619
96.1991,-0.0001738283
96.2991,-0.0001736334
96.3991,-0.0001733669
96.4991,-0.0001731946
96.5991,-0.0001729685
96.6991,-0.0001729365
96.7991,-0.0001726719
96.89909,-0.0001724176
96.99909,-0.0001721963
97.09909,-0.0001720136
97.19909,-0.0001717706
97.29909,-0.000171652
97.39909,-0.0001715041
97.49908,-0.0001713026
97.59908,-0.0001710323
97.69908,-0.0001708948
97.79908,-0.0001706236
97.89908,-0.0001704795
97.99908,-0.0001702582
98.09908,-0.0001700482
98.19907,-0.0001699484
98.29907,-0.0001698015
98.39907,-0.0001695227
98.49907,-0.0001692873
98.59907,-0.0001690961
98.69907,-0.0001690038
98.79906,-0.0001690679
98.89906,-0.0001687571
98.99906,-0.0001684887
99.09906,-0.0001683088
99.19906,-0.00016808
99.29906,-0.0001677673
99.39906,-0.0001675837
99.49905,-0.0001673765
99.59905,-0.0001671901
99.69905,-0.0001670761
99.79905,-0.0001668303
99.89905,-0.0001666203
99.99905,-0.0001664734
100.099,-0.0001662869
100.199,-0.0001661419
100.299,-0.0001659687
100.399,-0.0001657633
100.499,-0.0001655618
100.599,-0.0001654319
100.699,-0.0001652124
100.799,-0.0001650194
100.899,-0.0001648461
100.999,-0.0001646229
101.099,-0.0001644704
101.199,-0.0001643272
101.299,-0.0001641068
101.399,-0.0001639458
101.499,-0.0001637349
101.599,-0.0001636162
101.699,-0.0001634636
101.799,-0.0001632433
101.899,-0.0001630191
101.999,-0.0001628779
102.099,-0.0001626839
102.199,-0.0001624871
102.299,-0.0001623392
102.399,-0.000162165
102.499,-0.0001620152
102.599,-0.0001617968
102.699,-0.000161583
102.799,-0.000161454
102.899,-0.0001613306
102.999,-0.0001610698
103.099,-0.0001609002
103.199,-0.0001607712
103.299,-0.0001605386
103.399,-0.0001603974
103.499,-0.0001602382
103.599,-0.0001599981
103.699,-0.0001598643
103.799,-0.0001597589
103.899,-0.0001595206
103.999,-0.0001594142
104.099,-0.0001592362
104.199,-0.0001589358
104.299,-0.0001588397
104.399,-0.0001586891
104.499,-0.0001584329
104.599,-0.0001583105
104.699,-0.0001581711
104.799,-0.0001579225
104.899,-0.0001578076
104.999,-0.0001576918
105.099,-0.000157462
105.199,-0.0001573989
105.299,-0.0001572294
105.399,-0.0001569563
105.499,-0.0001568178
105.599,-0.0001566888
105.699,-0.0001565315
105.799,-0.0001565542
105.899,-0.000156282
105.999,-0.0001561106
106.099,-0.0001559448
106.199,-0.0001557132
106.299,-0.0001554872
106.3989,-0.0001553224
106.4989,-0.0001551161
106.5989,-0.0001550257
106.6989,-0.0001548477
106.7989,-0.0001547197
106.8989,-0.0001548355
106.9989,-0.000154536
107.0989,-0.0001542187
107.1989,-0.000154084
107.2989,-0.0001539587
107.3989,-0.0001537516
107.4989,-0.0001536094
107.5989,-0.0001534408
107.6989,-0.0001532807
107.7989,-0.0001531893
107.8989,-0.0001530528
107.9989,-0.0001527806
108.0989,-0.0001526271
108.1989,-0.000152532
108.2989,-0.0001523484
108.3989,-0.0001522382
108.4989,-0.0001520809
108.5989,-0.0001518794
108.6989,-0.0001517306
108.7989,-0.0001516035
108.8989,-0.0001514387
108.9989,-0.000151272
109.0989,-0.0001510836
109.1989,-0.0001509254
109.2989,-0.0001508294
109.3989,-0.0001506947
109.4989,-0.0001504715
109.5989,-0.0001503114
109.6989,-0.0001501447
109.7989,-0.0001500044
109.8989,-0.0001498942
109.9989,-0.0001497097
110.0989,-0.000149542
110.1989,-0.00014943
110.2989,-0.0001492849
110.3989,-0.0001491135
110.4989,-0.0001489808
110.5989,-0.0001488376
110.6989,-0.000148653
110.7989,-0.0001485692
110.8989,-0.0001483601
110.9989,-0.000148201
111.0989,-0.0001480861
111.1989,-0.0001479185
111.2989,-0.0001478055
111.3989,-0.0001476595
111.4989,-0.0001474693
111.5989,-0.0001473478
111.6989,-0.0001472499
111.7989,-0.0001471029
111.8989,-0.0001470606
111.9989,-0.0001469447
112.0989,-0.0001466942
112.1989,-0.0001465596
112.2989,-0.000146488
112.3989,-0.0001461895
112.4989,-0.0001460821
112.5989,-0.0001459286
112.6989,-0.0001457647
112.7989,-0.0001456028
112.8988,-0.0001455246
112.9988,-0.0001453984
113.0988,-0.0001452383
113.1988,-0.0001451065
113.2988,-0.0001449304
113.3988,-0.0001447778
113.4988,-0.0001446685
113.5988,-0.0001445019
113.6988,-0.000144371
113.7988,-0.0001442373
113.8988,-0.0001441129
113.9988,-0.0001439962
114.0988,-0.000143805
114.1988,-0.0001436336
114.2988,-0.0001434989
114.3988,-0.0001433774
114.4988,-0.0001432861
114.5988,-0.0001431495
114.6988,-0.0001429885
114.7988,-0.000142819
114.8988,-0.0001427399
114.9988,-0.0001426099
115.0988,-0.0001424159
115.1988,-0.0001423161
115.2988,-0.0001421513
115.3988,-0.000142027
115.4988,-0.000141898
115.5988,-0.0001417671
115.6988,-0.0001416221
115.7988,-0.0001415175
115.8988,-0.0001413603
115.9988,-0.0001412237
116.0988,-0.0001412039
116.1988,-0.0001411013
116.2988,-0.0001409459
116.3988,-0.0001407152
116.4988,-0.0001406078
116.5988,-0.0001404119
116.6988,-0.000140298
116.7988,-0.0001401643
116.8988,-0.0001400305
116.9988,-0.0001398883
117.0988,-0.0001397857
117.1988,-0.0001396171
117.2988,-0.0001395371
117.3988,-0.0001393713
117.4988,-0.0001392753
117.5988,-0.000139151
117.6988,-0.0001390351
117.7988,-0.0001388948
117.8988,-0.0001387441
117.9988,-0.0001386321
118.0988,-0.0001384965
118.1988,-0.0001384051
118.2988,-0.0001382535
118.3988,-0.0001381791
118.4988,-0.0001380529
118.5988,-0.0001378806
118.6988,-0.0001377515
118.7988,-0.0001375726
118.8988,-0.0001375312
118.9988,-0.0001373494
119.0988,-0.0001372063
119.1988,-0.0001370669
119.2988,-0.0001369445
119.3988,-0.0001368757
119.4987,-0.0001367147
119.5987,-0.0001365781
119.6987,-0.0001365122
119.7987,-0.0001363615
119.8987,-0.0001362297
119.9987,-0.0001361336
120.0987,-0.0001360423
120.1987,-0.0001359274
120.2987,-0.0001357146
120.3987,-0.0001356044
120.4987,-0.0001355385
120.5987,-0.0001354
120.6987,-0.0001352965
120.7987,-0.000135126
120.8987,-0.000134948
120.9987,-0.0001348858
121.0987,-0.0001347615
121.1987,-0.0001345572
121.2987,-0.0001345035
121.3987,-0.0001344442
121.4987,-0.0001342559
121.5987,-0.000134253
121.6987,-0.0001341485
121.7987,-0.0001339121
121.8987,-0.0001338217
121.9987,-0.0001337454
122.0987,-0.0001335627
122.1987,-0.0001334488
122.2987,-0.000133365
122.3987,-0.0001332152
122.4987,-0.0001331408
122.5987,-0.0001330542
122.6987,-0.0001328894
122.7987,-0.0001327453
122.8987,-0.000132669
122.9987,-0.0001325438
123.0987,-0.0001324562
123.1987,-0.0001323733
123.2987,-0.0001321916
123.3987,-0.0001320729
123.4987,-0.0001319787
123.5987,-0.0001318309
123.6987,-0.0001316943
123.7987,-0.0001316331
123.8987,-0.0001314683
123.9987,-0.0001313685
124.0987,-0.0001312574
124.1987,-0.0001310982
124.2987,-0.0001309861
124.3987,-0.0001309353
124.4987,-0.000130794
124.5987,-0.0001306942
124.6987,-0.0001305671
124.7987,-0.0001304409
124.8987,-0.0001303015
124.9987,-0.000130245
125.0987,-0.0001301264
125.1987,-0.0001300246
125.2987,-0.0001299276
125.3987,-0.0001297591
125.4987,-0.0001296743
125.5987,-0.0001296065
125.6987,-0.0001294417
125.7987,-0.0001293202
125.8987,-0.0001292044
125.9986,-0.000129065
126.0986,-0.0001289774
126.1986,-0.0001288908
126.2986,-0.0001287448
126.3986,-0.000128661
126.4986,-0.0001285697
126.5986,-0.0001284501
126.6986,-0.0001283352
126.7986,-0.0001282523
126.8986,-0.0001281478
126.9986,-0.0001280866
127.0986,-0.0001280498
127.1986,-0.0001278737
127.2986,-0.0001277579
127.3986,-0.000127724
127.4986,-0.0001275969
127.5986,-0.0001274914
127.6986,-0.000127401
127.7986,-0.0001272851
127.8986,-0.0001272569
127.9986,-0.0001271288
128.0986,-0.0001270036
128.1986,-0.0001269179
128.2986,-0.0001268209
128.3986,-0.0001266617
128.4986,-0.000126576
128.5986,-0.0001264611
128.6987,-0.0001263378
128.7987,-0.0001262907
128.8987,-0.0001262003
128.9987,-0.0001260185
129.0987,-0.0001259639
129.1987,-0.0001259036
129.2987,-0.0001257388
129.3987,-0.0001256616
129.4987,-0.0001256042
129.5987,-0.0001254648
129.6987,-0.0001254271
129.7987,-0.0001253235
129.8987,-0.0001251521
129.9987,-0.0001250862
130.0987,-0.0001250108
130.1987,-0.0001248753
130.2988,-0.0001248169
130.3988,-0.0001247076
130.4988,-0.0001245833
130.5988,-0.0001245438
130.6988,-0.000124443
130.7988,-0.0001243818
130.8988,-0.0001243234
130.9988,-0.0001241106
131.0988,-0.000124007
131.1988,-0.000123958
131.2988,-0.0001238309
131.3988,-0.0001238045
131.4988,-0.000123684
131.5988,-0.0001235022
131.6988,-0.0001234768
131.7988,-0.0001235888
131.8988,-0.0001233591
131.9989,-0.0001232781
132.0989,-0.0001232291
132.1989,-0.0001230916
132.2989,-0.000122908
132.3989,-0.0001228797
132.4989,-0.0001227601
132.5989,-0.0001226556
132.6989,-0.0001226076
132.7989,-0.0001225002
132.8989,-0.0001223222
132.9989,-0.000122278
133.0989,-0.0001221555
133.1989,-0.0001220237
133.2989,-0.0001219644
133.3989,-0.0001218843
133.4989,-0.0001217835
133.599,-0.0001216913
133.699,-0.0001216206
133.799,-0.0001215585
133.899,-0.0001214342
133.999,-0.0001213108
134.099,-0.0001212185
134.199,-0.0001211903
134.299,-0.0001210697
134.399,-0.0001209294
134.499,-0.0001208917
134.599,-0.0001207034
134.699,-0.0001206516
134.799,-0.0001205367
134.899,-0.0001204114
134.999,-0.0001203973
135.099,-0.0001202975
135.1991,-0.0001202024
135.2991,-0.0001201355
135.3991,-0.0001200225
135.4991,-0.0001199189
135.5991,-0.0001198765
135.6991,-0.0001197456
135.7991,-0.0001196298
135.8991,-0.0001195931
135.9991,-0.0001194575
136.0991,-0.0001193322
136.1991,-0.0001193002
136.2991,-0.0001191947
136.3991,-0.0001190751
136.4991,-0.0001190346
136.5991,-0.0001188906
136.6991,-0.0001187851
136.7991,-0.0001187229
136.8992,-0.0001186438
136.9992,-0.0001185656
137.0992,-0.0001184724
137.1992,-0.0001183933
137.2992,-0.0001183217
137.3992,-0.0001182069
137.4992,-0.0001180628
137.5992,-0.0001180355
137.6992,-0.0001179488
137.7992,-0.0001178245
137.8992,-0.0001177332
137.9992,-0.0001176606
138.0992,-0.0001175928
138.1992,-0.0001175307
138.2992,-0.0001174036
138.3992,-0.0001173282
138.4993,-0.0001172105
138.5993,-0.0001171757
138.6993,-0.0001170824
138.7993,-0.0001169958
138.8993,-0.0001169468
138.9993,-0.0001167877
139.0993,-0.0001167189
139.1993,-0.0001166577
139.2993,-0.0001165221
139.3993,-0.0001164901
139.4993,-0.000116378
139.5993,-0.0001162424
139.6993,-0.0001162132
139.7993,-0.0001161445
139.8993,-0.0001160371
139.9993,-0.0001160908
140.0993,-0.0001159467
140.1994,-0.0001157828
140.2994,-0.000115748
140.3994,-0.0001156774
140.4994,-0.0001155964
140.5994,-0.0001155229
140.6994,-0.000115441
140.7994,-0.0001153835
140.8994,-0.0001153289
140.9994,-0.0001151745
141.0994,-0.0001150615
141.1994,-0.0001150549
141.2994,-0.0001149202
141.3994,-0.0001148807
141.4994,-0.0001148129
141.5994,-0.0001147253
141.6994,-0.0001147253
141.7995,-0.0001145953
141.8995,-0.0001144352
141.9995,-0.0001143222
142.0995,-0.0001142864
142.1995,-0.0001141781
142.2995,-0.0001140858
142.3995,-0.0001140905
142.4995,-0.0001139681
142.5995,-0.0001138429
142.6995,-0.0001138297
142.7995,-0.0001137365
142.8995,-0.0001136573
142.9995,-0.0001136347
143.0995,-0.0001135114
143.1995,-0.0001134586
143.2995,-0.0001133786
143.3996,-0.000113275
143.4996,-0.0001131987
143.5996,-0.0001131149
143.6996,-0.0001130405
143.7996,-0.0001129868
143.8996,-0.0001128898
143.9996,-0.0001128117
144.0996,-0.0001127589
144.1996,-0.0001126892
144.2996,-0.0001127043
144.3996,-0.000112548
144.4996,-0.0001123945
144.5996,-0.0001123493
144.6996,-0.0001122674
144.7996,-0.0001121374
144.8996,-0.0001120809
144.9996,-0.0001120686
145.0997,-0.0001120329
145.1997,-0.0001118765
145.2997,-0.0001117739
145.3997,-0.0001117221
145.4997,-0.000111627
145.5997,-0.0001115968
145.6997,-0.0001114923
145.7997,-0.0001113793
145.8997,-0.000111336
145.9997,-0.0001112776
146.0997,-0.0001112183
146.1997,-0.0001111316
146.2997,-0.0001110789
146.3997,-0.0001110808
146.4997,-0.000111044
146.5997,-0.000110915
146.6998,-0.0001108077
146.7998,-0.0001107276
146.8998,-0.0001106645
146.9998,-0.0001105835
147.0998,-0.000110512
147.1998,-0.0001104037
147.2998,-0.0001103217
147.3998,-0.0001102784
147.4998,-0.0001101955
147.5998,-0.0001101146
147.6998,-0.0001100552
147.7998,-0.0001099695
147.8998,-0.0001099695
147.9998,-0.0001098753
148.0998,-0.0001098141
148.1998,-0.0001097529
148.2999,-0.0001096842
148.3999,-0.0001095834
148.4999,-0.0001095533
148.5999,-0.0001094977
148.6999,-0.0001093621
148.7999,-0.0001093499
148.8999,-0.0001092566
148.9999,-0.0001091954
149.0999,-0.0001091926
149.1999,-0.0001091182
149.2999,-0.0001089845
149.3999,-0.0001089016
149.4999,-0.0001088413
149.5999,-0.0001088272
149.6999,-0.000108685
149.7999,-0.0001085842
149.8999,-0.000108524
150,-0.0001084618
150.1,-0.0001084072
150.2,-0.0001083319
150.3,-0.0001082386
150.4,-0.000108216
150.5,-0.0001080936
150.6,-0.0001080569
150.7,-0.00010799
150.8,-0.0001078911
150.9,-0.0001078214
151,-0.0001078205
151.1,-0.0001077122
151.2,-0.0001076811
151.3,-0.0001075851
151.4,-0.0001075238
151.5,-0.0001074466
151.6001,-0.0001074127
151.7001,-0.0001073035
151.8001,-0.0001072498
151.9001,-0.0001071942
152.0001,-0.0001070944
152.1001,-0.0001070699
152.2001,-0.0001070313
152.3001,-0.0001069014
152.4001,-0.0001069042
152.5001,-0.0001068119
152.6001,-0.0001067271
152.7001,-0.0001066452
152.8001,-0.0001066094
152.9001,-0.0001065407
153.0001,-0.0001065576
153.1001,-0.0001063947
153.2001,-0.0001063034
153.3002,-0.0001062714
153.4002,-0.0001061762
153.5002,-0.0001060821
153.6002,-0.0001060548
153.7002,-0.0001059549
153.8002,-0.0001058758
153.9002,-0.0001058504
154.0002,-0.0001057751
154.1002,-0.0001056865
154.2002,-0.0001056508
154.3002,-0.0001055585
154.4002,-0.0001054794
154.5002,-0.0001054605
154.6002,-0.0001053682
154.7002,-0.0001053014
154.8002,-0.0001053023
154.9003,-0.0001051921
155.0003,-0.0001051234
155.1003,-0.0001051488
155.2003,-0.000105001
155.3003,-0.000104968
155.4003,-0.0001050198
155.5003,-0.0001048588
155.6003,-0.0001047834
155.7003,-0.000104709
155.8003,-0.0001046657
155.9003,-0.0001045593
156.0003,-0.0001045235
156.1003,-0.0001044331
156.2003,-0.0001043549
156.3003,-0.0001043465
156.4003,-0.0001042702
156.5004,-0.0001041609
156.6004,-0.0001041609
156.7004,-0.0001041101
156.8004,-0.0001040244
156.9004,-0.0001039848
157.0004,-0.0001039123
157.1004,-0.0001038144
157.2004,-0.0001037824
157.3004,-0.0001037334
157.4004,-0.0001036392
157.5004,-0.0001036185
157.6004,-0.0001035479
157.7004,-0.000103448
157.8004,-0.0001034066
157.9004,-0.0001033529
158.0004,-0.0001032474
158.1004,-0.0001031966
158.2005,-0.0001031655
158.3005,-0.0001030826
158.4005,-0.0001030553
158.5005,-0.0001030035
158.6005,-0.0001028915
158.7005,-0.0001028434
158.8005,-0.0001027813
158.9005,-0.0001027436
159.0005,-0.0001026815
159.1005,-0.0001026683
159.2005,-0.00010256
159.3005,-0.0001025562
159.4005,-0.0001024451
159.5005,-0.0001023895
159.6005,-0.0001023387
159.7005,-0.0001022662
159.8006,-0.000102221
159.9006,-0.0001021965
160.0006,-0.0001021202
160.1006,-0.0001019771
160.2006,-0.0001019507
160.3006,-0.0001019403
160.4006,-0.0001018198
160.5006,-0.0001017623
160.6006,-0.0001016898
160.7006,-0.0001016569
160.8006,-0.0001016136
160.9006,-0.0001015721
161.0006,-0.0001014855
161.1006,-0.0001014148
161.2006,-0.0001013838
161.3006,-0.0001013075
161.4007,-0.000101267
161.5007,-0.000101234
161.6007,-0.0001011493
161.7007,-0.0001010965
161.8007,-0.0001010513
161.9007,-0.0001009807
162.0007,-0.0001009242
162.1007,-0.0001008686
162.2007,-0.000100781
162.3007,-0.0001007924
162.4007,-0.0001006831
162.5007,-0.0001006549
162.6007,-0.0001006944
162.7007,-0.0001005852
162.8007,-0.0001005164
162.9007,-0.0001005051
163.0007,-0.0001004317
163.1008,-0.0001003206
163.2008,-0.0001002556
163.3008,-0.0001002075
163.4008,-0.0001001463
163.5008,-0.0001001115
163.6008,-0.0001001303
163.7008,-0.0001000098
163.8008,-9.998812E-05
163.9008,-9.989677E-05
164.0008,-9.984403E-05
164.1008,-9.976775E-05
164.2008,-9.97395E-05
164.3008,-9.965757E-05
164.4008,-9.963497E-05
164.5008,-9.958223E-05
164.6008,-9.949935E-05
164.7009,-9.945039E-05
164.8009,-9.941743E-05
164.9009,-9.934962E-05
165.0009,-9.927522E-05
165.1009,-9.92225E-05
165.2009,-9.918576E-05
165.3009,-9.913962E-05
165.4009,-9.908783E-05
165.5009,-9.904262E-05
165.6009,-9.894845E-05
165.7009,-9.891078E-05
165.8009,-9.886557E-05
165.9009,-9.880531E-05
166.0009,-9.877422E-05
166.1009,-9.873561E-05
166.2009,-9.866404E-05
166.3009,-9.859906E-05
166.401,-9.856328E-05
166.501,-9.850018E-05
166.601,-9.844932E-05
166.701,-9.839565E-05
166.801,-9.834479E-05
166.901,-9.831654E-05
167.001,-9.824874E-05
167.101,-9.820165E-05
167.201,-9.813855E-05
167.301,-9.809618E-05
167.401,-9.804533E-05
167.501,-9.794645E-05
167.601,-9.795963E-05
167.701,-9.794268E-05
167.801,-9.791631E-05
167.901,-9.779954E-05
168.0011,-9.771383E-05
168.1011,-9.768277E-05
168.2011,-9.760083E-05
168.3011,-9.756222E-05
168.4011,-9.751137E-05
168.5011,-9.743321E-05
168.6011,-9.743791E-05
168.7011,-9.737105E-05
168.8011,-9.729383E-05
168.9011,-9.724109E-05
169.0011,-9.719306E-05
169.1011,-9.713561E-05
169.2011,-9.709795E-05
169.3011,-9.705462E-05
169.4011,-9.699059E-05
169.5011,-9.691524E-05
169.6012,-9.689171E-05
169.7012,-9.682672E-05
169.8012,-9.678905E-05
169.9012,-9.674856E-05
170.0012,-9.666475E-05
170.1012,-9.661577E-05
170.2012,-9.660165E-05
170.3012,-9.651501E-05
170.4012,-9.648864E-05
170.5012,-9.641048E-05
170.6012,-9.636622E-05
170.7012,-9.635021E-05
170.8012,-9.630501E-05
170.9012,-9.621366E-05
171.0012,-9.620519E-05
171.1012,-9.612702E-05
171.2012,-9.609123E-05
171.3013,-9.607428E-05
171.4013,-9.600366E-05
171.5013,-9.594526E-05
171.6013,-9.593961E-05
171.7013,-9.586709E-05
171.8013,-9.58153E-05
171.9013,-9.576727E-05
172.0013,-9.573902E-05
172.1013,-9.569289E-05
172.2013,-9.567499E-05
172.3013,-9.563543E-05
172.4013,-9.555256E-05
172.5013,-9.556574E-05
172.6013,-9.549888E-05
172.7013,-9.545368E-05
172.8013,-9.557046E-05
172.9014,-9.541131E-05
173.0014,-9.527946E-05
173.1014,-9.525591E-05
173.2014,-9.517682E-05
173.3014,-9.510147E-05
173.4014,-9.508075E-05
173.5014,-9.504027E-05
173.6014,-9.506663E-05
173.7014,-9.499223E-05
173.8014,-9.49395E-05
173.9014,-9.485098E-05
174.0014,-9.482555E-05
174.1014,-9.480294E-05
174.2014,-9.473232E-05
174.3014,-9.469558E-05
174.4014,-9.46259E-05
174.5014,-9.459483E-05
174.6015,-9.45581E-05
174.7015,-9.453078E-05
174.8015,-9.444603E-05
174.9015,-9.443378E-05
175.0015,-9.439517E-05
175.1015,-9.43236E-05
175.2015,-9.428499E-05
175.3015,-9.429253E-05
175.4015,-9.420401E-05
175.5015,-9.412772E-05
175.6015,-9.410135E-05
175.7015,-9.402696E-05
175.8015,-9.396952E-05
175.9015,-9.399965E-05
176.0015,-9.3897E-05
176.1015,-9.385933E-05
176.2016,-9.377081E-05
176.3016,-9.37548E-05
176.4016,-9.37209E-05
176.5016,-9.369924E-05
176.6016,-9.364838E-05
176.7016,-9.35674E-05
176.8016,-9.355891E-05
176.9016,-9.35382E-05
177.0016,-9.350618E-05
177.1016,-9.343462E-05
177.2016,-9.335268E-05
177.3016,-9.333761E-05
177.4016,-9.329524E-05
177.5016,-9.323308E-05
177.6016,-9.316245E-05
177.7016,-9.309464E-05
177.8017,-9.308335E-05
177.9017,-9.304473E-05
178.0017,-9.298069E-05
178.1017,-9.296186E-05
178.2017,-9.293738E-05
178.3017,-9.289876E-05
178.4017,-9.285357E-05
178.5017,-9.287428E-05
178.6017,-9.27754E-05
178.7017,-9.269346E-05
178.8017,-9.268499E-05
178.9017,-9.261812E-05
179.0017,-9.252395E-05
179.1017,-9.248629E-05
179.2017,-9.246745E-05
179.3017,-9.24392E-05
179.4017,-9.240341E-05
179.5018,-9.233748E-05
179.6018,-9.227533E-05
179.7018,-9.22179E-05
179.8018,-9.218775E-05
179.9018,-9.216327E-05
180.0018,-9.208228E-05
180.1018,-9.205026E-05
180.2018,-9.201542E-05
180.3018,-9.193819E-05
180.4018,-9.190429E-05
180.5018,-9.188263E-05
180.6018,-9.189299E-05
180.7018,-9.177998E-05
180.8018,-9.175362E-05
180.9018,-9.171218E-05
181.0018,-9.165568E-05
181.1019,-9.160954E-05
181.2019,-9.153891E-05
181.3019,-9.152666E-05
181.4019,-9.152101E-05
181.5019,-9.142025E-05
181.6019,-9.136845E-05
181.7019,-9.13336E-05
181.8019,-9.129028E-05
181.9019,-9.124225E-05
182.0019,-9.123943E-05
182.1019,-9.115185E-05
182.2019,-9.109818E-05
182.3019,-9.108123E-05
182.4019,-9.106239E-05
182.5019,-9.105391E-05
182.6019,-9.100965E-05
182.702,-9.094185E-05
182.802,-9.094185E-05
182.902,-9.090229E-05
183.002,-9.081942E-05
183.102,-9.076385E-05
183.202,-9.076574E-05
183.302,-9.068287E-05
183.402,-9.06339E-05
183.502,-9.066497E-05
183.602,-9.056798E-05
183.702,-9.047474E-05
183.802,-9.049076E-05
183.902,-9.042389E-05
184.002,-9.043331E-05
184.102,-9.045686E-05
184.202,-9.037116E-05
184.302,-9.025438E-05
184.4021,-9.026286E-05
184.5021,-9.021672E-05
184.6021,-9.01329E-05
184.7021,-9.012819E-05
184.8021,-9.005474E-05
184.9021,-9.000294E-05
185.0021,-9.000954E-05
185.1021,-8.995114E-05
185.2021,-8.993514E-05
185.3021,-8.993419E-05
185.4021,-8.986073E-05
185.5021,-8.979387E-05
185.6021,-8.979293E-05
185.7021,-8.967992E-05
185.8021,-8.962813E-05
185.9021,-8.961966E-05
186.0022,-8.956692E-05
186.1022,-8.948593E-05
186.2022,-8.949252E-05
186.3022,-8.944354E-05
186.4022,-8.94492E-05
186.5022,-8.947463E-05
186.6022,-8.951889E-05
186.7022,-8.94087E-05
186.8022,-8.92731E-05
186.9022,-8.922319E-05
187.0022,-8.918175E-05
187.1022,-8.916669E-05
187.2022,-8.91243E-05
187.3022,-8.905462E-05
187.4022,-8.898586E-05
187.5022,-8.893784E-05
187.6022,-8.89821E-05
187.7023,-8.891713E-05
187.8023,-8.890676E-05
187.9023,-8.886909E-05
188.0023,-8.879093E-05
188.1023,-8.87834E-05
188.2023,-8.874007E-05
188.3023,-8.864119E-05
188.4023,-8.858564E-05
188.5023,-8.854702E-05
188.6023,-8.8515E-05
188.7023,-8.85103E-05
188.8023,-8.845285E-05
188.9023,-8.838411E-05
189.0023,-8.833419E-05
189.1023,-8.831253E-05
189.2023,-8.830971E-05
189.3024,-8.826356E-05
189.4024,-8.822966E-05
189.5024,-8.820235E-05
189.6024,-8.816656E-05
189.7024,-8.812606E-05
189.8024,-8.811665E-05
189.9024,-8.803001E-05
190.0024,-8.798104E-05
190.1024,-8.799799E-05
190.2024,-8.797162E-05
190.3024,-8.788499E-05
190.4024,-8.784638E-05
190.5024,-8.779835E-05
190.6024,-8.775973E-05
190.7024,-8.774656E-05
190.8024,-8.770417E-05
190.9025,-8.764107E-05
191.0025,-8.760246E-05
191.1025,-8.756009E-05
191.2025,-8.752994E-05
191.3025,-8.750358E-05
191.4025,-8.743766E-05
191.5025,-8.735761E-05
191.6025,-8.738022E-05
191.7025,-8.73708E-05
191.8025,-8.730111E-05
191.9025,-8.728416E-05
192.0025,-8.721918E-05
192.1025,-8.713725E-05
192.2025,-8.711936E-05
192.3025,-8.708263E-05
192.4025,-8.70638E-05
192.5025,-8.70459E-05
192.6026,-8.702613E-05
192.7026,-8.694326E-05
192.8026,-8.692442E-05
192.9026,-8.68811E-05
193.0026,-8.684437E-05
193.1026,-8.680388E-05
193.2026,-8.676432E-05
193.3026,-8.668522E-05
193.4026,-8.669274E-05
193.5026,-8.664849E-05
193.6026,-8.660705E-05
193.7026,-8.657692E-05
193.8026,-8.65562E-05
193.9026,-8.649593E-05
194.0026,-8.653454E-05
194.1026,-8.644979E-05
194.2027,-8.639799E-05
194.3027,-8.640364E-05
194.4027,-8.637257E-05
194.5027,-8.629535E-05
194.6027,-8.627179E-05
194.7027,-8.622189E-05
194.8027,-8.615879E-05
194.9027,-8.616068E-05
195.0027,-8.609099E-05
195.1027,-8.605426E-05
195.2027,-8.606556E-05
195.3027,-8.601E-05
195.4027,-8.595255E-05
195.5027,-8.602224E-05
195.6027,-8.597045E-05
195.7027,-8.589323E-05
195.8027,-8.584896E-05
195.9028,-8.577268E-05
196.0028,-8.572371E-05
196.1028,-8.574537E-05
196.2028,-8.57595E-05
196.3028,-8.570676E-05
196.4028,-8.564461E-05
196.5028,-8.560223E-05
196.6028,-8.560035E-05
196.7028,-8.554949E-05
196.8028,-8.547886E-05
196.9028,-8.547039E-05
197.0028,-8.54459E-05
197.1028,-8.5412E-05
197.2028,-8.538752E-05
197.3028,-8.53263E-05
197.4028,-8.528675E-05
197.5029,-8.528392E-05
197.6029,-8.526321E-05
197.7029,-8.517185E-05
197.8029,-8.514078E-05
197.9029,-8.512478E-05
198.0029,-8.509087E-05
198.1029,-8.506262E-05
198.2029,-8.502401E-05
198.3029,-8.498446E-05
198.4029,-8.494301E-05
198.5029,-8.493078E-05
198.6029,-8.48818E-05
198.7029,-8.481211E-05
198.8029,-8.477538E-05
198.9029,-8.476221E-05
199.0029,-8.472547E-05
199.103,-8.469722E-05
199.203,-8.466991E-05
199.303,-8.463224E-05
199.403,-8.458233E-05
199.503,-8.455314E-05
199.603,-8.452677E-05
199.703,-8.447027E-05
199.803,-8.444672E-05
199.903,-8.442883E-05
200.003,-8.43695E-05
200.103,-8.434502E-05
200.203,-8.43064E-05
200.303,-8.424801E-05
200.403,-8.421129E-05
200.503,-8.417456E-05
200.603,-8.417363E-05
200.703,-8.41303E-05
200.8031,-8.407003E-05
200.9031,-8.403142E-05
201.0031,-8.404272E-05
201.1031,-8.401729E-05
201.2031,-8.396267E-05
201.3031,-8.395514E-05
201.4031,-8.388545E-05
201.5031,-8.384119E-05
201.6031,-8.381859E-05
201.7031,-8.377055E-05
201.8031,-8.375079E-05
201.9031,-8.372159E-05
202.0031,-8.36858E-05
202.1031,-8.362647E-05
202.2031,-8.36067E-05
202.3031,-8.361141E-05
202.4032,-8.35502E-05
202.5032,-8.350593E-05
202.6032,-8.34758E-05
202.7032,-8.341647E-05
202.8032,-8.339575E-05
202.9032,-8.340611E-05
203.0032,-8.335432E-05
203.1032,-8.329876E-05
203.2032,-8.33044E-05
203.3032,-8.323001E-05
203.4032,-8.319139E-05
203.5032,-8.318575E-05
203.6032,-8.314902E-05
203.7032,-8.31123E-05
203.8032,-8.311512E-05
203.9032,-8.302283E-05
204.0033,-8.30313E-05
204.1033,-8.314996E-05
204.2033,-8.303695E-05
204.3033,-8.297103E-05
204.4033,-8.294937E-05
204.5033,-8.291453E-05
204.6033,-8.286462E-05
204.7033,-8.283731E-05
204.8033,-8.280058E-05
204.9033,-8.275444E-05
205.0033,-8.27695E-05
205.1033,-8.269228E-05
205.2033,-8.265744E-05
205.3033,-8.265555E-05
205.4033,-8.261788E-05
205.5033,-8.254914E-05
205.6033,-8.255008E-05
205.7034,-8.252088E-05
205.8034,-8.247286E-05
205.9034,-8.24785E-05
206.0034,-8.246344E-05
206.1034,-8.241635E-05
206.2034,-8.237398E-05
206.3034,-8.234007E-05
206.4034,-8.229581E-05
206.5034,-8.227038E-05
206.6034,-8.226756E-05
206.7034,-8.223554E-05
206.8034,-8.219128E-05
206.9034,-8.214514E-05
207.0034,-8.212724E-05
207.1034,-8.209334E-05
207.2034,-8.206697E-05
207.3035,-8.201611E-05
207.4035,-8.199257E-05
207.5035,-8.199634E-05
207.6035,-8.193042E-05
207.7035,-8.193136E-05
207.8035,-8.187674E-05
207.9035,-8.184189E-05
208.0035,-8.17901E-05
208.1035,-8.178446E-05
208.2035,-8.174866E-05
208.3035,-8.170911E-05
208.4035,-8.165638E-05
208.5035,-8.166014E-05
208.6035,-8.160082E-05
208.7035,-8.158386E-05
208.8035,-8.156597E-05
208.9035,-8.150852E-05
209.0036,-8.147556E-05
209.1036,-8.148498E-05
209.2036,-8.142565E-05
209.3036,-8.140117E-05
209.4036,-8.13569E-05
209.5036,-8.131923E-05
209.6036,-8.131453E-05
209.7036,-8.130512E-05
209.8036,-8.129757E-05
209.9036,-8.124673E-05
210.0036,-8.121093E-05
210.1036,-8.11648E-05
210.2036,-8.116102E-05
210.3036,-8.114314E-05
210.4036,-8.119399E-05
210.5036,-8.107156E-05
210.6037,-8.105179E-05
210.7037,-8.105555E-05
210.8037,-8.097174E-05
210.9037,-8.090205E-05
211.0037,-8.089828E-05
211.1037,-8.08625E-05
211.2037,-8.084271E-05
211.3037,-8.080788E-05
211.4037,-8.07994E-05
211.5037,-8.077586E-05
211.6037,-8.072688E-05
211.7037,-8.071841E-05
211.8037,-8.066097E-05
211.9037,-8.065342E-05
212.0037,-8.063272E-05
212.1037,-8.0628E-05
212.2038,-8.061294E-05
212.3038,-8.058092E-05
212.4038,-8.054796E-05
212.5038,-8.051877E-05
212.6038,-8.041046E-05
212.7038,-8.037657E-05
212.8038,-8.03549E-05
212.9038,-8.034077E-05
213.0038,-8.028427E-05
213.1038,-8.026072E-05
213.2038,-8.025132E-05
213.3038,-8.022306E-05
213.4038,-8.018068E-05
213.5038,-8.017315E-05
213.6038,-8.012606E-05
213.7038,-8.01157E-05
213.8038,-8.011099E-05
213.9039,-8.006296E-05
214.0039,-8.001964E-05
214.1039,-8.00074E-05
214.2039,-8.001117E-05
214.3039,-7.99961E-05
214.4039,-7.993019E-05
214.5039,-7.991606E-05
214.6039,-7.986897E-05
214.7039,-7.986237E-05
214.8039,-7.987086E-05
214.9039,-7.985484E-05
215.0039,-7.976444E-05
215.1039,-7.974183E-05
215.2039,-7.972206E-05
215.3039,-7.968439E-05
215.4039,-7.965143E-05
215.504,-7.959587E-05
215.604,-7.957797E-05
215.704,-7.956386E-05
215.804,-7.950264E-05
215.904,-7.949321E-05
216.004,-7.947815E-05
216.104,-7.942165E-05
216.204,-7.938774E-05
216.304,-7.940282E-05
216.404,-7.934443E-05
216.504,-7.931711E-05
216.604,-7.932465E-05
216.704,-7.926155E-05
216.804,-7.922765E-05
216.904,-7.922576E-05
217.004,-7.916927E-05
217.104,-7.912688E-05
217.2041,-7.914572E-05
217.3041,-7.912218E-05
217.4041,-7.906002E-05
217.5041,-7.90572E-05
217.6041,-7.901576E-05
217.7041,-7.89602E-05
217.8041,-7.894325E-05
217.9041,-7.895925E-05
218.0041,-7.888957E-05
218.1041,-7.88632E-05
218.2041,-7.885754E-05
218.3041,-7.87954E-05
218.4041,-7.87954E-05
218.5041,-7.876996E-05
218.6041,-7.874077E-05
218.7041,-7.869746E-05
218.8042,-7.86626E-05
218.9042,-7.861741E-05
219.0042,-7.862682E-05
219.1042,-7.860046E-05
219.2042,-7.854583E-05
219.3042,-7.851287E-05
219.4042,-7.847803E-05
219.5042,-7.844695E-05
219.6042,-7.848367E-05
219.7042,-7.842341E-05
219.8042,-7.839892E-05
219.9042,-7.837068E-05
220.0042,-7.831134E-05
220.1042,-7.832077E-05
220.2042,-7.830004E-05
220.3042,-7.825108E-05
220.4043,-7.819834E-05
220.5043,-7.819646E-05
220.6043,-7.815595E-05
220.7043,-7.813524E-05
220.8043,-7.812864E-05
220.9043,-7.808345E-05
221.0043,-7.804201E-05
221.1043,-7.805802E-05
221.2043,-7.801563E-05
221.3043,-7.79742E-05
221.4043,-7.79469E-05
221.5043,-7.790169E-05
221.6043,-7.786779E-05
221.7043,-7.786967E-05
221.8043,-7.784424E-05
221.9043,-7.780375E-05
222.0043,-7.778397E-05
222.1044,-7.776514E-05
222.2044,-7.771428E-05
222.3044,-7.772465E-05
222.4044,-7.767285E-05
222.5044,-7.758809E-05
222.6044,-7.761634E-05
222.7044,-7.759845E-05
222.8044,-7.757585E-05
222.9044,-7.755043E-05
223.0044,-7.751652E-05
223.1044,-7.748639E-05
223.2044,-7.749674E-05
223.3044,-7.744213E-05
223.4044,-7.743083E-05
223.5044,-7.742141E-05
223.6044,-7.739221E-05
223.7045,-7.734607E-05
223.8045,-7.731594E-05
223.9045,-7.728863E-05
224.0045,-7.725661E-05
224.1045,-7.724437E-05
224.2045,-7.723212E-05
224.3045,-7.719445E-05
224.4045,-7.717562E-05
224.5045,-7.713795E-05
224.6045,-7.710499E-05
224.7045,-7.709557E-05
224.8045,-7.708521E-05
224.9045,-7.703153E-05
225.0045,-7.707674E-05
225.1045,-7.704189E-05
225.2045,-7.695243E-05
225.3046,-7.692983E-05
225.4046,-7.693077E-05
225.5046,-7.695054E-05
225.6046,-7.705413E-05
225.7046,-7.699103E-05
225.8046,-7.691099E-05
225.9046,-7.691099E-05
226.0046,-7.682812E-05
226.1046,-7.681399E-05
226.2046,-7.674807E-05
226.3046,-7.668027E-05
226.4046,-7.666049E-05
226.5046,-7.665955E-05
226.6046,-7.658986E-05
226.7046,-7.658421E-05
226.8046,-7.666802E-05
226.9046,-7.658892E-05
227.0047,-7.656726E-05
227.1047,-7.654842E-05
227.2047,-7.65164E-05
227.3047,-7.645802E-05
227.4047,-7.644389E-05
227.5047,-7.64034E-05
227.6047,-7.637891E-05
227.7047,-7.639775E-05
227.8047,-7.634783E-05
227.9047,-7.629604E-05
228.0047,-7.635066E-05
228.1047,-7.629698E-05
228.2047,-7.624047E-05
228.3047,-7.626873E-05
228.4047,-7.622164E-05
228.5047,-7.619339E-05
228.6048,-7.618303E-05
228.7048,-7.61237E-05
228.8048,-7.608415E-05
228.9048,-7.611429E-05
229.0048,-7.61124E-05
229.1048,-7.604931E-05
229.2048,-7.600222E-05
229.3048,-7.595889E-05
229.4048,-7.594383E-05
229.5048,-7.59636E-05
229.6048,-7.59137E-05
229.7048,-7.587226E-05
229.8048,-7.585342E-05
229.9048,-7.585248E-05
230.0048,-7.580069E-05
230.1048,-7.579126E-05
230.2048,-7.57536E-05
230.3049,-7.57197E-05
230.4049,-7.573947E-05
230.5049,-7.571594E-05
230.6049,-7.566414E-05
230.7049,-7.564059E-05
230.8049,-7.561517E-05
230.9049,-7.558692E-05
231.0049,-7.561423E-05
231.1049,-7.557562E-05
231.2049,-7.552571E-05
231.3049,-7.553041E-05
231.4049,-7.548426E-05
231.5049,-7.54061E-05
231.6049,-7.54353E-05
231.7049,-7.536937E-05
231.8049,-7.533453E-05
231.905,-7.535524E-05
232.005,-7.531946E-05
232.105,-7.530533E-05
232.205,-7.526013E-05
232.305,-7.524319E-05
232.405,-7.521117E-05
232.505,-7.519234E-05
232.605,-7.518574E-05
232.705,-7.514524E-05
232.805,-7.512547E-05
232.905,-7.507085E-05
233.005,-7.505107E-05
233.105,-7.506897E-05
233.205,-7.501435E-05
233.305,-7.498326E-05
233.405,-7.498138E-05
233.5051,-7.493336E-05
233.6051,-7.491546E-05
233.7051,-7.492205E-05
233.8051,-7.487968E-05
233.9051,-7.483448E-05
234.0051,-7.481469E-05
234.1051,-7.479209E-05
234.2051,-7.476196E-05
234.3051,-7.47516E-05
234.4051,-7.472429E-05
234.5051,-7.467909E-05
234.6051,-7.467061E-05
234.7051,-7.464048E-05
234.8051,-7.461317E-05
234.9051,-7.461882E-05
235.0051,-7.457267E-05
235.1051,-7.454442E-05
235.2052,-7.453406E-05
235.3052,-7.451994E-05
235.4052,-7.450392E-05
235.5052,-7.448132E-05
235.6052,-7.445966E-05
235.7052,-7.439563E-05
235.8052,-7.438433E-05
235.9052,-7.436926E-05
236.0052,-7.434665E-05
236.1052,-7.432123E-05
236.2052,-7.431275E-05
236.3052,-7.425813E-05
236.4052,-7.422612E-05
236.5052,-7.421576E-05
236.6052,-7.42007E-05
236.7052,-7.417337E-05
236.8053,-7.416301E-05
236.9053,-7.413194E-05
237.0053,-7.409239E-05
237.1053,-7.405566E-05
237.2053,-7.408109E-05
237.3053,-7.405377E-05
237.4053,-7.401234E-05
237.5053,-7.398786E-05
237.6053,-7.397091E-05
237.7053,-7.393982E-05
237.8053,-7.395584E-05
237.9053,-7.392193E-05
238.0053,-7.387485E-05
238.1053,-7.385413E-05
238.2053,-7.385413E-05
238.3053,-7.381834E-05
238.4053,-7.380233E-05
238.5054,-7.376749E-05
238.6054,-7.375525E-05
238.7054,-7.374018E-05
238.8054,-7.371004E-05
238.9054,-7.368367E-05
239.0054,-7.363471E-05
239.1054,-7.363565E-05
239.2054,-7.360363E-05
239.3054,-7.358009E-05
239.4054,-7.356596E-05
239.5054,-7.354336E-05
239.6054,-7.352359E-05
239.7054,-7.34925E-05
239.8054,-7.345861E-05
239.9054,-7.345483E-05
240.0054,-7.341905E-05
240.1055,-7.339362E-05
240.2055,-7.339456E-05
240.3055,-7.336255E-05
240.4055,-7.333147E-05
240.5055,-7.332487E-05
240.6055,-7.328815E-05
240.7055,-7.326837E-05
240.8055,-7.323635E-05
240.9055,-7.31968E-05
241.0055,-7.320716E-05
241.1055,-7.320151E-05
241.2055,-7.322788E-05
241.3055,-7.318739E-05
241.4055,-7.310922E-05
241.5055,-7.314971E-05
241.6055,-7.310263E-05
241.7056,-7.306025E-05
241.8056,-7.305836E-05
241.9056,-7.298585E-05
242.0056,-7.294348E-05
242.1056,-7.295383E-05
242.2056,-7.288792E-05
242.3056,-7.289639E-05
242.4056,-7.289356E-05
242.5056,-7.284836E-05
242.6056,-7.280787E-05
242.7056,-7.279751E-05
242.8056,-7.280975E-05
242.9056,-7.275795E-05
243.0056,-7.272876E-05
243.1056,-7.269486E-05
243.2056,-7.267132E-05
243.3056,-7.26732E-05
243.4057,-7.266096E-05
243.5057,-7.26167E-05
243.6057,-7.259315E-05
243.7057,-7.259975E-05
243.8057,-7.255925E-05
243.9057,-7.254606E-05
244.0057,-7.251311E-05
244.1057,-7.248108E-05
244.2057,-7.247544E-05
244.3057,-7.245001E-05
244.4057,-7.245471E-05
244.5057,-7.245849E-05
244.6057,-7.236337E-05
244.7057,-7.236148E-05
244.8057,-7.23596E-05
244.9057,-7.236619E-05
245.0058,-7.233041E-05
245.1058,-7.227579E-05
245.2058,-7.225413E-05
245.3058,-7.224848E-05
245.4058,-7.220422E-05
245.5058,-7.215054E-05
245.6058,-7.215995E-05
245.7058,-7.214394E-05
245.8058,-7.212417E-05
245.9058,-7.209309E-05
246.0058,-7.208556E-05
246.1058,-7.208556E-05
246.2058,-7.204601E-05
246.3058,-7.203753E-05
246.4058,-7.202529E-05
246.5058,-7.199233E-05
246.6059,-7.19622E-05
246.7059,-7.196878E-05
246.8059,-7.193205E-05
246.9059,-7.188026E-05
247.0059,-7.189533E-05
247.1059,-7.187555E-05
247.2059,-7.18134E-05
247.3059,-7.18021E-05
247.4059,-7.178891E-05
247.5059,-7.177384E-05
247.6059,-7.173241E-05
247.7059,-7.173147E-05
247.8059,-7.174371E-05
247.9059,-7.172959E-05
248.0059,-7.169286E-05
248.1059,-7.163729E-05
248.2059,-7.161564E-05
248.306,-7.162599E-05
248.406,-7.161564E-05
248.506,-7.152994E-05
248.606,-7.152994E-05
248.706,-7.153935E-05
248.806,-7.154501E-05
248.906,-7.149133E-05
249.006,-7.146119E-05
249.106,-7.144424E-05
249.206,-7.143576E-05
249.306,-7.142352E-05
249.406,-7.14028E-05
249.506,-7.134442E-05
249.606,-7.133782E-05
249.706,-7.133689E-05
249.806,-7.130863E-05
249.9061,-7.129733E-05
250.0061,-7.12559E-05
250.1061,-7.123894E-05
250.2061,-7.122388E-05
250.3061,-7.12559E-05
250.4061,-7.119185E-05
250.5061,-7.115136E-05
250.6061,-7.114948E-05
250.7061,-7.11344E-05
250.8061,-7.109957E-05
250.9061,-7.109768E-05
251.0061,-7.106001E-05
251.1061,-7.102988E-05
251.2061,-7.102234E-05
251.3061,-7.098844E-05
251.4061,-7.096207E-05
251.5061,-7.093005E-05
251.6062,-7.092064E-05
251.7062,-7.088674E-05
251.8062,-7.088391E-05
251.9062,-7.087261E-05
252.0062,-7.080763E-05
252.1062,-7.082082E-05
252.2062,-7.081799E-05
252.3062,-7.078785E-05
252.4062,-7.076148E-05
252.5062,-7.073323E-05
252.6062,-7.070968E-05
252.7062,-7.067014E-05
252.8062,-7.066261E-05
252.9062,-7.065883E-05
253.0062,-7.06513E-05
253.1062,-7.063341E-05
253.2063,-7.05882E-05
253.3063,-7.053829E-05
253.4063,-7.054678E-05
253.5063,-7.052699E-05
253.6063,-7.049498E-05
253.7063,-7.04978E-05
253.8063,-7.04639E-05
253.9063,-7.043471E-05
254.0063,-7.043941E-05
254.1063,-7.040551E-05
254.2063,-7.036784E-05
254.3063,-7.037443E-05
254.4063,-7.034053E-05
254.5063,-7.032546E-05
254.6063,-7.030286E-05
254.7063,-7.026613E-05
254.8064,-7.025013E-05
254.9064,-7.023506E-05
255.0064,-7.022376E-05
255.1064,-7.020868E-05
255.2064,-7.02021E-05
255.3064,-7.015218E-05
255.4064,-7.012865E-05
255.5064,-7.012865E-05
255.6064,-7.009661E-05
255.7064,-7.005895E-05
255.8064,-7.009756E-05
255.9064,-7.005142E-05
256.0064,-7.002882E-05
256.1064,-7.00015E-05
256.2064,-6.997137E-05
256.3064,-6.997043E-05
256.4064,-7.000715E-05
256.5064,-6.992899E-05
256.6064,-6.988285E-05
256.7065,-6.989697E-05
256.8065,-6.98546E-05
256.9065,-6.983576E-05
257.0065,-6.981787E-05
257.1065,-6.975572E-05
257.2065,-6.982823E-05
257.3065,-6.98254E-05
257.4065,-6.975665E-05
257.5065,-6.969921E-05
257.6065,-6.971804E-05
257.7065,-6.969921E-05
257.8065,-6.966813E-05
257.9065,-6.967472E-05
258.0065,-6.957302E-05
258.1065,-6.962576E-05
258.2065,-6.961351E-05
258.3065,-6.95476E-05
258.4066,-6.953441E-05
258.5066,-6.949956E-05
258.6066,-6.948638E-05
258.7066,-6.947602E-05
258.8066,-6.945907E-05
258.9066,-6.942893E-05
259.0066,-6.93875E-05
259.1066,-6.938091E-05
259.2066,-6.937055E-05
259.3066,-6.936112E-05
259.4066,-6.934795E-05
259.5066,-6.92905E-05
259.6066,-6.927166E-05
259.7066,-6.930651E-05
259.8066,-6.926508E-05
259.9066,-6.924247E-05
260.0067,-6.922929E-05
260.1067,-6.920857E-05
260.2067,-6.917278E-05
260.3067,-6.917749E-05
260.4067,-6.915301E-05
260.5067,-6.913605E-05
260.6067,-6.911251E-05
260.7067,-6.90965E-05
260.8067,-6.909556E-05
260.9067,-6.904754E-05
261.0067,-6.902681E-05
261.1067,-6.902587E-05
261.2067,-6.902304E-05
261.3067,-6.897879E-05
261.4067,-6.897596E-05
261.5067,-6.894394E-05
261.6068,-6.893453E-05
261.7068,-6.893264E-05
261.8068,-6.890251E-05
261.9068,-6.887331E-05
262.0068,-6.885071E-05
262.1068,-6.884318E-05
262.2068,-6.881211E-05
262.3068,-6.882058E-05
262.4068,-6.879138E-05
262.5068,-6.875371E-05
262.6068,-6.873864E-05
262.7068,-6.87198E-05
262.8068,-6.868684E-05
262.9068,-6.868308E-05
263.0068,-6.865483E-05
263.1068,-6.863129E-05
263.2068,-6.861152E-05
263.3069,-6.860774E-05
263.4069,-6.858797E-05
263.5069,-6.856913E-05
263.6069,-6.854936E-05
263.7069,-6.853335E-05
263.8069,-6.850886E-05
263.9069,-6.849945E-05
264.0069,-6.848815E-05
264.1069,-6.845989E-05
264.2069,-6.843635E-05
264.3069,-6.840244E-05
264.4069,-6.839774E-05
264.5069,-6.837984E-05
264.6069,-6.836667E-05
264.7069,-6.835253E-05
264.8069,-6.834124E-05
264.907,-6.833558E-05
265.007,-6.829038E-05
265.107,-6.828285E-05
265.207,-6.827532E-05
265.307,-6.823387E-05
265.407,-6.81962E-05
265.507,-6.821127E-05
265.607,-6.818303E-05
265.707,-6.817173E-05
265.807,-6.814065E-05
265.907,-6.808602E-05
266.007,-6.809168E-05
266.107,-6.808885E-05
266.207,-6.806343E-05
266.307,-6.804082E-05
266.407,-6.802011E-05
266.507,-6.800127E-05
266.6071,-6.799374E-05
266.7071,-6.799091E-05
266.8071,-6.794947E-05
266.9071,-6.795795E-05
267.0071,-6.792687E-05
267.1071,-6.790615E-05
267.2071,-6.790521E-05
267.3071,-6.78713E-05
267.4071,-6.785154E-05
267.5071,-6.783741E-05
267.6071,-6.779974E-05
267.7071,-6.777243E-05
267.8071,-6.77762E-05
267.9071,-6.777149E-05
268.0071,-6.774323E-05
268.1071,-6.77357E-05
268.2072,-6.770368E-05
268.3072,-6.765094E-05
268.4072,-6.767072E-05
268.5072,-6.765283E-05
268.6072,-6.761893E-05
268.7072,-6.763494E-05
268.8072,-6.758973E-05
268.9072,-6.755677E-05
269.0072,-6.755959E-05
269.1072,-6.75304E-05
269.2072,-6.749556E-05
269.3072,-6.753134E-05
269.4072,-6.748426E-05
269.5072,-6.743247E-05
269.6072,-6.744E-05
269.7072,-6.741457E-05
269.8073,-6.73703E-05
269.9073,-6.740422E-05
270.0073,-6.734112E-05
270.1073,-6.732982E-05
270.2073,-6.732228E-05
270.3073,-6.732228E-05
270.4073,-6.727896E-05
270.5073,-6.729591E-05
270.6073,-6.728273E-05
270.7073,-6.721493E-05
270.8073,-6.722057E-05
270.9073,-6.723093E-05
271.0073,-6.718008E-05
271.1073,-6.719609E-05
271.2073,-6.717066E-05
271.3073,-6.712075E-05
271.4073,-6.712923E-05
271.5074,-6.712451E-05
271.6074,-6.707743E-05
271.7074,-6.707743E-05
271.8074,-6.708496E-05
271.9074,-6.702281E-05
272.0074,-6.700963E-05
272.1074,-6.70134E-05
272.2074,-6.696631E-05
272.3074,-6.695501E-05
272.4074,-6.695123E-05
272.5074,-6.691169E-05
272.6074,-6.691828E-05
272.7074,-6.689002E-05
272.8074,-6.686366E-05
272.9074,-6.686837E-05
273.0074,-6.685141E-05
273.1075,-6.680244E-05
273.2075,-6.680056E-05
273.3075,-6.677043E-05
273.4075,-6.676101E-05
273.5075,-6.676666E-05
273.6075,-6.674029E-05
273.7075,-6.675159E-05
273.8075,-6.669038E-05
273.9075,-6.66706E-05
274.0075,-6.664707E-05
274.1075,-6.663011E-05
274.2075,-6.662822E-05
274.3075,-6.661315E-05
274.4075,-6.657925E-05
274.5075,-6.657455E-05
274.6075,-6.653218E-05
274.7076,-6.654347E-05
274.8076,-6.652652E-05
274.9076,-6.649167E-05
275.0076,-6.646154E-05
275.1076,-6.647944E-05
275.2076,-6.646154E-05
275.3076,-6.642481E-05
275.4076,-6.644836E-05
275.5076,-6.641822E-05
275.6076,-6.637396E-05
275.7076,-6.636171E-05
275.8076,-6.634759E-05
275.9076,-6.633063E-05
276.0076,-6.632687E-05
276.1076,-6.629203E-05
276.2076,-6.626095E-05
276.3076,-6.627602E-05
276.4077,-6.625718E-05
276.5077,-6.623835E-05
276.6077,-6.621857E-05
276.7077,-6.618373E-05
276.8077,-6.615265E-05
276.9077,-6.615453E-05
277.0077,-6.614229E-05
277.1077,-6.611404E-05
277.2077,-6.609991E-05
277.3077,-6.607355E-05
277.4077,-6.60679E-05
277.5077,-6.603965E-05
277.6077,-6.60387E-05
277.7077,-6.60048E-05
277.8077,-6.599538E-05
277.9077,-6.596148E-05
278.0078,-6.59709E-05
278.1078,-6.593793E-05
278.2078,-6.593417E-05
278.3078,-6.590498E-05
278.4078,-6.587766E-05
278.5078,-6.585317E-05
278.6078,-6.586542E-05
278.7078,-6.583811E-05
278.8078,-6.581269E-05
278.9078,-6.580892E-05
279.0078,-6.577502E-05
279.1078,-6.577784E-05
279.2078,-6.575713E-05
279.3078,-6.572793E-05
279.4078,-6.569968E-05
279.5078,-6.568837E-05
279.6078,-6.566483E-05
279.7079,-6.565636E-05
279.8079,-6.566295E-05
279.9079,-6.561963E-05
280.0079,-6.558667E-05
280.1079,-6.558667E-05
280.2079,-6.558008E-05
280.3079,-6.554523E-05
280.4079,-6.556689E-05
280.5079,-6.551133E-05
280.6079,-6.548779E-05
280.7079,-6.548873E-05
280.8079,-6.547178E-05
280.9079,-6.5452E-05
281.0079,-6.545294E-05
281.1079,-6.540491E-05
281.2079,-6.538043E-05
281.308,-6.539173E-05
281.408,-6.537854E-05
281.508,-6.535972E-05
281.608,-6.535877E-05
281.708,-6.531733E-05
281.808,-6.527967E-05
281.908,-6.52806E-05
282.008,-6.527025E-05
282.108,-6.5242E-05
282.208,-6.523635E-05
282.308,-6.522034E-05
282.408,-6.522316E-05
282.508,-6.518549E-05
282.608,-6.513653E-05
282.708,-6.514405E-05
282.808,-6.516101E-05
282.9081,-6.512522E-05
283.0081,-6.511769E-05
283.1081,-6.509697E-05
283.2081,-6.508002E-05
283.3081,-6.506401E-05
283.4081,-6.504612E-05
283.5081,-6.501127E-05
283.6081,-6.501881E-05
283.7081,-6.49802E-05
283.8081,-6.494064E-05
283.9081,-6.495006E-05
284.0081,-6.494535E-05
284.1081,-6.489544E-05
284.2081,-6.49058E-05
284.3081,-6.491239E-05
284.4081,-6.486342E-05
284.5081,-6.488979E-05
284.6082,-6.484458E-05
284.7082,-6.48088E-05
284.8082,-6.481351E-05
284.9082,-6.477584E-05
285.0082,-6.474665E-05
285.1082,-6.474194E-05
285.2082,-6.4741E-05
285.3082,-6.474382E-05
285.4082,-6.468638E-05
285.5082,-6.465342E-05
285.6082,-6.468167E-05
285.7082,-6.474476E-05
285.8082,-6.469108E-05
285.9082,-6.462893E-05
286.0082,-6.462234E-05
286.1082,-6.462234E-05
286.2083,-6.459126E-05
286.3083,-6.451686E-05
286.4083,-6.449238E-05
286.5083,-6.449709E-05
286.6083,-6.448013E-05
286.7083,-6.445847E-05
286.8083,-6.442834E-05
286.9083,-6.44048E-05
287.0083,-6.442646E-05
287.1083,-6.440951E-05
287.2083,-6.436242E-05
287.3083,-6.435112E-05
287.4083,-6.432852E-05
287.5083,-6.433039E-05
287.6083,-6.434077E-05
287.7083,-6.431628E-05
287.8083,-6.427672E-05
287.9084,-6.426448E-05
288.0084,-6.424847E-05
288.1084,-6.424564E-05
288.2084,-6.422116E-05
288.3084,-6.420515E-05
288.4084,-6.416936E-05
288.5084,-6.41769E-05
288.6084,-6.415147E-05
288.7084,-6.413264E-05
288.8084,-6.414111E-05
288.9084,-6.412134E-05
289.0084,-6.408178E-05
289.1084,-6.410439E-05
289.2084,-6.404977E-05
289.3084,-6.403376E-05
289.4084,-6.405258E-05
289.5085,-6.400173E-05
289.6085,-6.398572E-05
289.7085,-6.399609E-05
289.8085,-6.396877E-05
289.9085,-6.392734E-05
290.0085,-6.394146E-05
290.1085,-6.393017E-05
290.2085,-6.388496E-05
290.3085,-6.389532E-05
290.4085,-6.386895E-05
290.5085,-6.383599E-05
290.6085,-6.385012E-05
290.7085,-6.383694E-05
290.8085,-6.378796E-05
290.9085,-6.380869E-05
291.0085,-6.377289E-05
291.1086,-6.373805E-05
291.2086,-6.375313E-05
291.3086,-6.373052E-05
291.4086,-6.369096E-05
291.5086,-6.371545E-05
291.6086,-6.370227E-05
291.7086,-6.364671E-05
291.8086,-6.366647E-05
291.9086,-6.364106E-05
292.0086,-6.360526E-05
292.1086,-6.363258E-05
292.2086,-6.362222E-05
292.3086,-6.356477E-05
292.4086,-6.357513E-05
292.5086,-6.357419E-05
292.6086,-6.354877E-05
292.7086,-6.354877E-05
292.8087,-6.351204E-05
292.9087,-6.348002E-05
293.0087,-6.347813E-05
293.1087,-6.346401E-05
293.2087,-6.344329E-05
293.3087,-6.345366E-05
293.4087,-6.342822E-05
293.5087,-6.338961E-05
293.6087,-6.337454E-05
293.7087,-6.33689E-05
293.8087,-6.335476E-05
293.9087,-6.335005E-05
294.0087,-6.333876E-05
294.1087,-6.329826E-05
294.2087,-6.328508E-05
294.3087,-6.328226E-05
294.4088,-6.326436E-05
294.5088,-6.325212E-05
294.6088,-6.325118E-05
294.7088,-6.321257E-05
294.8088,-6.319562E-05
294.9088,-6.317866E-05
295.0088,-6.318243E-05
295.1088,-6.317678E-05
295.2088,-6.314665E-05
295.3088,-6.312969E-05
295.4088,-6.311275E-05
295.5088,-6.310426E-05
295.6088,-6.310992E-05
295.7088,-6.309296E-05
295.8088,-6.30666E-05
295.9088,-6.304776E-05
296.0089,-6.302704E-05
296.1089,-6.300727E-05
296.2089,-6.298655E-05
296.3089,-6.297432E-05
296.4089,-6.295076E-05
296.5089,-6.294794E-05
296.6089,-6.293569E-05
296.7089,-6.292346E-05
296.8089,-6.289708E-05
296.9089,-6.28839E-05
297.0089,-6.287637E-05
297.1089,-6.285E-05
297.2089,-6.284905E-05
297.3089,-6.28208E-05
297.4089,-6.280856E-05
297.5089,-6.279255E-05
297.6089,-6.276806E-05
297.709,-6.276996E-05
297.809,-6.27483E-05
297.909,-6.273793E-05
298.009,-6.271062E-05
298.109,-6.268802E-05
298.209,-6.266165E-05
298.309,-6.265695E-05
298.409,-6.264565E-05
298.509,-6.262022E-05
298.609,-6.259385E-05
298.709,-6.260609E-05
298.809,-6.259479E-05
298.909,-6.258349E-05
299.009,-6.254583E-05
299.109,-6.252604E-05
299.209,-6.252417E-05
299.3091,-6.250814E-05
299.4091,-6.248366E-05
299.5091,-6.24573E-05
299.6091,-6.246578E-05
299.7091,-6.24573E-05
299.8091,-6.244035E-05
299.9091,-6.241775E-05
300.0091,-6.23989E-05
300.1091,-6.237254E-05
300.2091,-6.235277E-05
300.3091,-6.2349E-05
300.4091,-6.233488E-05
300.5091,-6.234241E-05
300.6091,-6.231886E-05
300.7091,-6.228967E-05
300.8091,-6.228213E-05
300.9091,-6.226425E-05
301.0092,-6.225953E-05
301.1092,-6.223599E-05
301.2092,-6.222752E-05
301.3092,-6.223222E-05
301.4092,-6.219361E-05
301.5092,-6.21729E-05
301.6092,-6.213993E-05
301.7092,-6.213711E-05
301.8092,-6.211733E-05
301.9092,-6.210415E-05
302.0092,-6.21098E-05
302.1092,-6.208626E-05
302.2092,-6.20646E-05
302.3092,-6.207213E-05
302.4092,-6.204764E-05
302.5092,-6.20467E-05
302.6093,-6.203164E-05
302.7093,-6.202127E-05
302.8093,-6.199208E-05
302.9093,-6.197325E-05
303.0093,-6.196854E-05
303.1093,-6.194594E-05
303.2093,-6.192522E-05
303.3093,-6.193181E-05
303.4093,-6.190921E-05
303.5093,-6.188096E-05
303.6093,-6.187907E-05
303.7093,-6.186024E-05
303.8093,-6.184235E-05
303.9093,-6.18367E-05
304.0093,-6.180279E-05
304.1093,-6.179149E-05
304.2094,-6.178773E-05
304.3094,-6.176606E-05
304.4094,-6.174629E-05
304.5094,-6.175948E-05
304.6094,-6.171333E-05
304.7094,-6.168414E-05
304.8094,-6.170109E-05
304.9094,-6.169637E-05
305.0094,-6.166247E-05
305.1094,-6.167943E-05
305.2094,-6.164929E-05
305.3094,-6.161728E-05
305.4094,-6.161351E-05
305.5094,-6.160598E-05
305.6094,-6.157772E-05
305.7094,-6.158055E-05
305.8094,-6.155606E-05
305.9095,-6.152498E-05
306.0095,-6.154193E-05
306.1095,-6.15231E-05
306.2095,-6.149203E-05
306.3095,-6.151086E-05
306.4095,-6.14666E-05
306.5095,-6.144494E-05
306.6095,-6.145529E-05
306.7095,-6.144965E-05
306.8095,-6.139879E-05
306.9095,-6.140821E-05
307.0095,-6.140538E-05
307.1095,-6.136112E-05
307.2095,-6.137525E-05
307.3095,-6.137902E-05
307.4095,-6.135923E-05
307.5096,-6.132816E-05
307.6096,-6.130839E-05
307.7096,-6.12839E-05
307.8096,-6.126883E-05
307.9096,-6.128672E-05
308.0096,-6.125565E-05
308.1096,-6.123493E-05
308.2096,-6.123681E-05
308.3096,-6.120103E-05
308.4096,-6.119255E-05
308.5096,-6.118313E-05
308.6096,-6.117184E-05
308.7096,-6.116336E-05
308.8096,-6.113228E-05
308.9096,-6.113981E-05
309.0096,-6.111909E-05
309.1096,-6.109555E-05
309.2097,-6.106824E-05
309.3097,-6.106824E-05
309.4097,-6.106165E-05
309.5097,-6.102681E-05
309.6097,-6.102398E-05
309.7097,-6.099573E-05
309.8097,-6.097878E-05
309.9097,-6.098443E-05
310.0097,-6.099291E-05
310.1097,-6.094111E-05
310.2097,-6.094017E-05
310.3097,-6.09185E-05
310.4097,-6.09025E-05
310.5097,-6.091097E-05
310.6097,-6.088178E-05
310.7097,-6.08394E-05
310.8098,-6.084976E-05
310.9098,-6.082622E-05
311.0098,-6.081209E-05
311.1098,-6.082622E-05
311.2098,-6.079703E-05
311.3098,-6.074805E-05
311.4098,-6.074052E-05
311.5098,-6.073675E-05
311.6098,-6.072169E-05
311.7098,-6.071886E-05
311.8098,-6.067178E-05
311.9098,-6.066235E-05
312.0098,-6.06699E-05
312.1098,-6.067272E-05
312.2098,-6.063128E-05
312.3098,-6.062186E-05
312.4099,-6.06068E-05
312.5099,-6.058137E-05
312.6099,-6.061056E-05
312.7099,-6.058043E-05
312.8099,-6.055689E-05
312.9099,-6.053146E-05
313.0099,-6.05211E-05
313.1099,-6.050132E-05
313.2099,-6.050415E-05
313.3099,-6.048249E-05
313.4099,-6.045141E-05
313.5099,-6.045141E-05
313.6099,-6.043916E-05
313.7099,-6.042033E-05
313.8099,-6.042881E-05
313.9099,-6.039208E-05
314.0099,-6.038078E-05
314.11,-6.038266E-05
314.21,-6.036383E-05
314.31,-6.033558E-05
314.41,-6.033087E-05
314.51,-6.032522E-05
314.61,-6.029791E-05
314.71,-6.030167E-05
314.81,-6.028755E-05
314.91,-6.025647E-05
315.01,-6.024046E-05
315.11,-6.024894E-05
315.21,-6.02188E-05
315.31,-6.022916E-05
315.41,-6.01962E-05
315.51,-6.017548E-05
315.61,-6.014158E-05
315.7101,-6.013499E-05
315.8101,-6.012934E-05
315.9101,-6.012746E-05
316.0101,-6.011897E-05
316.1101,-6.006624E-05
316.2101,-6.00653E-05
316.3101,-6.005965E-05
316.4101,-6.005494E-05
316.5101,-6.004552E-05
316.6101,-6.002198E-05
316.7101,-6.000315E-05
316.8101,-5.997866E-05
316.9101,-5.997207E-05
317.0101,-5.995606E-05
317.1101,-5.995041E-05
317.2101,-5.993816E-05
317.3102,-5.991839E-05
317.4102,-5.990615E-05
317.5102,-5.990803E-05
317.6102,-5.987507E-05
317.7102,-5.987036E-05
317.8102,-5.985812E-05
317.9102,-5.983834E-05
318.0102,-5.982893E-05
318.1102,-5.981386E-05
318.2102,-5.979314E-05
318.3102,-5.977148E-05
318.4102,-5.978372E-05
318.5102,-5.975736E-05
318.6102,-5.974605E-05
318.7102,-5.972439E-05
318.8102,-5.969802E-05
318.9102,-5.969991E-05
319.0103,-5.969897E-05
319.1103,-5.968955E-05
319.2103,-5.966789E-05
319.3103,-5.966412E-05
319.4103,-5.962174E-05
319.5103,-5.960479E-05
319.6103,-5.960291E-05
319.7103,-5.960385E-05
319.8103,-5.957183E-05
319.9103,-5.956524E-05
320.0103,-5.953793E-05
320.1103,-5.953039E-05
320.2103,-5.952474E-05
320.3103,-5.951627E-05
320.4103,-5.949461E-05
320.5103,-5.94899E-05
320.6104,-5.946636E-05
320.7104,-5.943528E-05
320.8104,-5.94221E-05
320.9104,-5.943717E-05
321.0104,-5.941644E-05
321.1104,-5.940514E-05
321.2104,-5.937784E-05
321.3104,-5.93477E-05
321.4104,-5.9359E-05
321.5104,-5.93477E-05
321.6104,-5.931568E-05
321.7104,-5.931003E-05
321.8104,-5.928837E-05
321.9104,-5.928649E-05
322.0104,-5.926954E-05
322.1104,-5.927142E-05
322.2104,-5.925447E-05
322.3105,-5.923093E-05
322.4105,-5.921492E-05
322.5105,-5.91942E-05
322.6105,-5.919043E-05
322.7105,-5.920079E-05
322.8105,-5.916783E-05
322.9105,-5.914994E-05
323.0105,-5.91424E-05
323.1105,-5.911886E-05
323.2105,-5.911697E-05
323.3105,-5.910944E-05
323.4105,-5.908872E-05
323.5105,-5.910003E-05
323.6105,-5.906141E-05
323.7105,-5.903975E-05
323.8105,-5.905105E-05
323.9106,-5.90294E-05
324.0106,-5.901433E-05
324.1106,-5.903316E-05
324.2106,-5.897383E-05
324.3106,-5.896348E-05
324.4106,-5.895877E-05
324.5106,-5.895029E-05
324.6106,-5.891921E-05
324.7106,-5.894464E-05
324.8106,-5.890038E-05
324.9106,-5.88806E-05
325.0106,-5.889285E-05
325.1106,-5.885894E-05
325.2106,-5.88354E-05
325.3106,-5.885423E-05
325.4106,-5.882975E-05
325.5107,-5.879396E-05
325.6107,-5.880432E-05
325.7107,-5.879114E-05
325.8107,-5.877701E-05
325.9107,-5.877419E-05
326.0107,-5.875724E-05
326.1107,-5.871957E-05
326.2107,-5.873934E-05
326.3107,-5.871768E-05
326.4107,-5.868378E-05
326.5107,-5.86979E-05
326.6107,-5.867248E-05
326.7107,-5.865741E-05
326.8107,-5.863763E-05
326.9107,-5.862916E-05
327.0107,-5.860844E-05
327.1107,-5.861975E-05
327.2108,-5.85962E-05
327.3108,-5.855947E-05
327.4108,-5.858207E-05
327.5108,-5.855571E-05
327.6108,-5.852557E-05
327.7108,-5.854723E-05
327.8108,-5.853028E-05
327.9108,-5.84992E-05
328.0108,-5.849261E-05
328.1108,-5.846718E-05
328.2108,-5.845306E-05
328.3108,-5.8454E-05
328.4108,-5.845023E-05
328.5108,-5.841351E-05
328.6108,-5.842386E-05
328.7108,-5.838902E-05
328.8109,-5.836453E-05
328.9109,-5.839184E-05
329.0109,-5.837301E-05
329.1109,-5.832875E-05
329.2109,-5.834947E-05
329.3109,-5.833345E-05
329.4109,-5.829013E-05
329.5109,-5.831462E-05
329.6109,-5.830332E-05
329.7109,-5.826942E-05
329.8109,-5.827318E-05
329.9109,-5.824682E-05
330.0109,-5.823269E-05
330.1109,-5.823834E-05
330.2109,-5.821292E-05
330.3109,-5.819502E-05
330.4109,-5.820161E-05
330.511,-5.817807E-05
330.611,-5.816018E-05
330.711,-5.8163E-05
330.811,-5.814511E-05
330.911,-5.811686E-05
331.011,-5.813381E-05
331.111,-5.811591E-05
331.211,-5.80773E-05
331.311,-5.810367E-05
331.411,-5.808201E-05
331.511,-5.804811E-05
331.611,-5.80547E-05
331.711,-5.804811E-05
331.811,-5.800103E-05
331.911,-5.801233E-05
332.011,-5.801609E-05
332.1111,-5.797936E-05
332.2111,-5.798313E-05
332.3111,-5.796524E-05
332.4111,-5.79417E-05
332.5111,-5.794075E-05
332.6111,-5.794452E-05
332.7111,-5.79012E-05
332.8111,-5.790967E-05
332.9111,-5.789649E-05
333.0111,-5.78607E-05
333.1111,-5.787483E-05
333.2111,-5.787201E-05
333.3111,-5.783716E-05
333.4111,-5.783528E-05
333.5111,-5.782398E-05
333.6111,-5.779573E-05
333.7112,-5.780797E-05
333.8112,-5.779761E-05
333.9112,-5.775618E-05
334.0112,-5.775994E-05
334.1112,-5.774393E-05
334.2112,-5.773075E-05
334.3112,-5.771003E-05
334.4112,-5.772039E-05
334.5112,-5.771474E-05
334.6112,-5.769685E-05
334.7112,-5.768366E-05
334.8112,-5.765352E-05
334.9112,-5.764129E-05
335.0112,-5.764317E-05
335.1112,-5.762056E-05
335.2112,-5.762998E-05
335.3112,-5.761115E-05
335.4113,-5.758478E-05
335.5113,-5.75829E-05
335.6113,-5.758101E-05
335.7113,-5.75716E-05
335.8113,-5.755747E-05
335.9113,-5.753864E-05
336.0113,-5.751321E-05
336.1113,-5.749343E-05
336.2113,-5.748684E-05
336.3113,-5.747836E-05
336.4113,-5.74633E-05
336.5113,-5.745671E-05
336.6113,-5.741433E-05
336.7113,-5.74115E-05
336.8113,-5.741809E-05
336.9113,-5.739079E-05
337.0114,-5.738419E-05
337.1114,-5.737289E-05
337.2114,-5.736912E-05
337.3114,-5.735782E-05
337.4114,-5.735311E-05
337.5114,-5.733898E-05
337.6114,-5.73258E-05
337.7114,-5.729472E-05
337.8114,-5.728154E-05
337.9114,-5.726553E-05
338.0114,-5.7258E-05
338.1114,-5.722975E-05
338.2114,-5.72175E-05
338.3114,-5.721562E-05
338.4114,-5.720149E-05
338.5114,-5.718831E-05
338.6115,-5.717607E-05
338.7115,-5.716571E-05
338.8115,-5.715629E-05
338.9115,-5.7161E-05
339.0115,-5.715158E-05
339.1115,-5.713463E-05
339.2115,-5.711109E-05
339.3115,-5.708001E-05
339.4115,-5.709226E-05
339.5115,-5.708943E-05
339.6115,-5.705176E-05
339.7115,-5.703104E-05
339.8115,-5.703292E-05
339.9115,-5.702539E-05
340.0115,-5.700467E-05
340.1115,-5.699714E-05
340.2115,-5.699431E-05
340.3116,-5.696983E-05
340.4116,-5.697737E-05
340.5116,-5.694817E-05
340.6116,-5.69218E-05
340.7116,-5.694534E-05
340.8116,-5.691144E-05
340.9116,-5.688978E-05
341.0116,-5.690108E-05
341.1116,-5.687095E-05
341.2116,-5.685399E-05
341.3116,-5.684458E-05
341.4116,-5.683705E-05
341.5116,-5.68135E-05
341.6116,-5.680314E-05
341.7116,-5.679844E-05
341.8116,-5.677018E-05
341.9117,-5.67683E-05
342.0117,-5.676265E-05
342.1117,-5.674475E-05
342.2117,-5.671933E-05
342.3117,-5.669861E-05
342.4117,-5.666471E-05
342.5117,-5.669484E-05
342.6117,-5.66713E-05
342.7117,-5.663834E-05
342.8117,-5.665246E-05
342.9117,-5.661386E-05
343.0117,-5.659785E-05
343.1117,-5.662327E-05
343.2117,-5.660067E-05
343.3117,-5.657242E-05
343.4117,-5.658466E-05
343.5117,-5.656394E-05
343.6118,-5.652439E-05
343.7118,-5.65517E-05
343.8118,-5.651968E-05
343.9118,-5.647918E-05
344.0118,-5.650179E-05
344.1118,-5.648955E-05
344.2118,-5.646977E-05
344.3118,-5.646694E-05
344.4118,-5.645847E-05
344.5118,-5.640196E-05
344.6118,-5.641986E-05
344.7118,-5.641515E-05
344.8118,-5.639443E-05
344.9118,-5.639161E-05
345.0118,-5.638125E-05
345.1118,-5.63464E-05
345.2119,-5.636618E-05
345.3119,-5.634358E-05
345.4119,-5.631532E-05
345.5119,-5.632004E-05
345.6119,-5.63125E-05
345.7119,-5.627483E-05
345.8119,-5.630497E-05
345.9119,-5.626918E-05
346.0119,-5.62268E-05
346.1119,-5.625788E-05
346.2119,-5.626164E-05
346.3119,-5.620985E-05
346.4119,-5.62268E-05
346.5119,-5.619102E-05
346.6119,-5.616747E-05
346.7119,-5.619572E-05
346.812,-5.619007E-05
346.912,-5.614016E-05
347.012,-5.613922E-05
347.112,-5.613263E-05
347.212,-5.611474E-05
347.312,-5.612886E-05
347.412,-5.610532E-05
347.512,-5.607142E-05
347.612,-5.6062E-05
347.712,-5.604505E-05
347.812,-5.60281E-05
347.912,-5.604599E-05
348.012,-5.603186E-05
348.112,-5.601021E-05
348.212,-5.599326E-05
348.312,-5.599796E-05
348.412,-5.598195E-05
348.5121,-5.595653E-05
348.6121,-5.595182E-05
348.7121,-5.594334E-05
348.8121,-5.593863E-05
348.9121,-5.59311E-05
349.0121,-5.589343E-05
349.1121,-5.588401E-05
349.2121,-5.588119E-05
349.3121,-5.586989E-05
349.4121,-5.586235E-05
349.5121,-5.586518E-05
349.6121,-5.583316E-05
349.7121,-5.581621E-05
349.8121,-5.580491E-05
349.9121,-5.580302E-05
350.0121,-5.580585E-05
350.1122,-5.578419E-05
350.2122,-5.576912E-05
350.3122,-5.575594E-05
350.4122,-5.576724E-05
350.5122,-5.573522E-05
350.6122,-5.572769E-05
350.7122,-5.572863E-05
350.8122,-5.570038E-05
350.9122,-5.570226E-05
351.0122,-5.570226E-05
351.1122,-5.567307E-05
351.2122,-5.566835E-05
351.3122,-5.565234E-05
351.4122,-5.563822E-05
351.5122,-5.561844E-05
351.6122,-5.561468E-05
351.7122,-5.558643E-05
351.8123,-5.557512E-05
351.9123,-5.560526E-05
352.0123,-5.556853E-05
352.1123,-5.554405E-05
352.2123,-5.558737E-05
352.3123,-5.555818E-05
352.4123,-5.552615E-05
352.5123,-5.551014E-05
352.6123,-5.55092E-05
352.7123,-5.552521E-05
352.8123,-5.550638E-05
352.9123,-5.544046E-05
353.0123,-5.544988E-05
353.1123,-5.547153E-05
353.2123,-5.545741E-05
353.3123,-5.541974E-05
353.4124,-5.542821E-05
353.5124,-5.541597E-05
353.6124,-5.539714E-05
353.7124,-5.539055E-05
353.8124,-5.534911E-05
353.9124,-5.532839E-05
354.0124,-5.535852E-05
354.1124,-5.53331E-05
354.2124,-5.532556E-05
354.3124,-5.53105E-05
354.4124,-5.527471E-05
354.5124,-5.526718E-05
354.6124,-5.528601E-05
354.7124,-5.525117E-05
354.8124,-5.523516E-05
354.9124,-5.523799E-05
355.0125,-5.523704E-05
355.1125,-5.522386E-05
355.2125,-5.521726E-05
355.3125,-5.519749E-05
355.4125,-5.515417E-05
355.5125,-5.517677E-05
355.6125,-5.5157E-05
355.7125,-5.515229E-05
355.8125,-5.514663E-05
355.9125,-5.510614E-05
356.0125,-5.510332E-05
356.1125,-5.509955E-05
356.2125,-5.510614E-05
356.3125,-5.509013E-05
356.4125,-5.505906E-05
356.5125,-5.504869E-05
356.6125,-5.504305E-05
356.7126,-5.503551E-05
356.8126,-5.502892E-05
356.9126,-5.500632E-05
357.0126,-5.501668E-05
357.1126,-5.496865E-05
357.2126,-5.499502E-05
357.3126,-5.496959E-05
357.4126,-5.493945E-05
357.5126,-5.495547E-05
357.6126,-5.495264E-05
357.7126,-5.492627E-05
357.8126,-5.492062E-05
357.9126,-5.489613E-05
358.0126,-5.487165E-05
358.1126,-5.488766E-05
358.2126,-5.487636E-05
358.3127,-5.484999E-05
358.4127,-5.484811E-05
358.5127,-5.483775E-05
358.6127,-5.482645E-05
358.7127,-5.483587E-05
358.8127,-5.480667E-05
358.9127,-5.478501E-05
359.0127,-5.479161E-05
359.1127,-5.476712E-05
359.2127,-5.474735E-05
359.3127,-5.476712E-05
359.4127,-5.472945E-05
359.5127,-5.47012E-05
359.6127,-5.472097E-05
359.7127,-5.470214E-05
359.8127,-5.467672E-05
359.9128,-5.467766E-05
360.0128,-5.465882E-05
360.1128,-5.462586E-05
360.2128,-5.462963E-05
360.3128,-5.462398E-05
360.4128,-5.46155E-05
360.5128,-5.462115E-05
360.6128,-5.460891E-05
360.7128,-5.458442E-05
360.8128,-5.460043E-05
360.9128,-5.457689E-05
361.0128,-5.455146E-05
361.1128,-5.455523E-05
361.2128,-5.453168E-05
361.3128,-5.451191E-05
361.4128,-5.453546E-05
361.5128,-5.450532E-05
361.6129,-5.447895E-05
361.7129,-5.449213E-05
361.8129,-5.449213E-05
361.9129,-5.445258E-05
362.0129,-5.445635E-05
362.1129,-5.442621E-05
362.2129,-5.439702E-05
362.3129,-5.43989E-05
362.4129,-5.439514E-05
362.5129,-5.438478E-05
362.6129,-5.437065E-05
362.7129,-5.435935E-05
362.8129,-5.432827E-05
362.9129,-5.435276E-05
363.0129,-5.432639E-05
363.1129,-5.430284E-05
363.213,-5.429908E-05
363.313,-5.428119E-05
363.413,-5.426141E-05
363.513,-5.427742E-05
363.613,-5.425764E-05
363.713,-5.424634E-05
363.813,-5.425576E-05
363.913,-5.421432E-05
364.013,-5.419266E-05
364.113,-5.421903E-05
364.213,-5.418889E-05
364.313,-5.417289E-05
364.413,-5.418607E-05
364.513,-5.416817E-05
364.613,-5.413804E-05
364.713,-5.415311E-05
364.813,-5.412391E-05
364.9131,-5.411168E-05
365.0131,-5.41371E-05
365.1131,-5.411168E-05
365.2131,-5.4074E-05
365.3131,-5.409001E-05
365.4131,-5.407495E-05
365.5131,-5.405046E-05
365.6131,-5.405328E-05
365.7131,-5.405517E-05
365.8131,-5.401939E-05
365.9131,-5.402409E-05
366.0131,-5.400149E-05
366.1131,-5.399961E-05
366.2131,-5.401939E-05
366.3131,-5.40288E-05
366.4131,-5.397983E-05
366.5132,-5.397418E-05
366.6132,-5.397512E-05
366.7132,-5.396006E-05
366.8132,-5.395817E-05
366.9132,-5.39431E-05
367.0132,-5.389507E-05
367.1132,-5.390638E-05
367.2132,-5.387812E-05
367.3132,-5.386023E-05
367.4132,-5.388001E-05
367.5132,-5.386871E-05
367.6132,-5.383386E-05
367.7132,-5.381408E-05
367.8132,-5.38075E-05
367.9132,-5.381315E-05
368.0132,-5.383575E-05
368.1133,-5.379243E-05
368.2133,-5.374723E-05
368.3133,-5.378112E-05
368.4133,-5.376229E-05
368.5133,-5.375287E-05
368.6133,-5.374534E-05
368.7133,-5.372651E-05
368.8133,-5.37039E-05
368.9133,-5.37331E-05
369.0133,-5.37152E-05
369.1133,-5.368319E-05
369.2133,-5.368224E-05
369.3133,-5.367188E-05
369.4133,-5.364081E-05
369.5133,-5.3654E-05
369.6133,-5.362197E-05
369.7133,-5.360031E-05
369.8134,-5.36135E-05
369.9134,-5.358054E-05
370.0134,-5.358336E-05
370.1134,-5.360502E-05
370.2134,-5.355888E-05
370.3134,-5.35391E-05
370.4134,-5.355417E-05
370.5134,-5.354287E-05
370.6134,-5.352027E-05
370.7134,-5.352121E-05
370.8134,-5.35052E-05
370.9134,-5.346847E-05
371.0134,-5.347883E-05
371.1134,-5.346942E-05
371.2134,-5.343928E-05
371.3134,-5.343551E-05
371.4135,-5.342798E-05
371.5135,-5.340914E-05
371.6135,-5.341008E-05
371.7135,-5.340538E-05
371.8135,-5.338842E-05
371.9135,-5.338654E-05
372.0135,-5.336865E-05
372.1135,-5.33404E-05
372.2135,-5.334699E-05
372.3135,-5.332816E-05
372.4135,-5.332627E-05
372.5135,-5.333098E-05
372.6135,-5.329802E-05
372.7135,-5.327259E-05
372.8135,-5.329425E-05
372.9135,-5.327636E-05
373.0135,-5.324717E-05
373.1136,-5.326977E-05
373.2136,-5.323869E-05
373.3136,-5.322833E-05
373.4136,-5.324622E-05
373.5136,-5.321703E-05
373.6136,-5.319254E-05
373.7136,-5.320008E-05
373.8136,-5.318124E-05
373.9136,-5.315864E-05
374.0136,-5.3169E-05
374.1136,-5.315581E-05
374.2136,-5.31172E-05
374.3136,-5.313981E-05
374.4136,-5.311344E-05
374.5136,-5.311627E-05
374.6136,-5.310214E-05
374.7137,-5.306447E-05
374.8137,-5.30607E-05
374.9137,-5.306729E-05
375.0137,-5.305128E-05
375.1137,-5.303716E-05
375.2137,-5.304469E-05
375.3137,-5.301079E-05
375.4137,-5.300796E-05
375.5137,-5.303339E-05
375.6137,-5.299666E-05
375.7137,-5.297689E-05
375.8137,-5.296559E-05
375.9137,-5.292792E-05
376.0137,-5.295617E-05
376.1137,-5.296465E-05
376.2137,-5.293168E-05
376.3138,-5.289966E-05
376.4138,-5.291567E-05
376.5138,-5.287613E-05
376.6138,-5.287518E-05
376.7138,-5.289401E-05
376.8138,-5.285729E-05
376.9138,-5.284034E-05
377.0138,-5.283657E-05
377.1138,-5.283374E-05
377.2138,-5.28328E-05
377.3138,-5.281491E-05
377.4138,-5.278854E-05
377.5138,-5.277441E-05
377.6138,-5.276971E-05
377.7138,-5.276971E-05
377.8138,-5.275746E-05
377.9138,-5.273298E-05
378.0139,-5.271415E-05
378.1139,-5.270473E-05
378.2139,-5.270567E-05
378.3139,-5.268119E-05
378.4139,-5.267459E-05
378.5139,-5.267742E-05
378.6139,-5.265858E-05
378.7139,-5.266706E-05
378.8139,-5.265104E-05
378.9139,-5.262656E-05
379.0139,-5.260585E-05
379.1139,-5.257665E-05
379.2139,-5.259454E-05
379.3139,-5.26002E-05
379.4139,-5.259831E-05
379.5139,-5.25484E-05
379.614,-5.256535E-05
379.714,-5.253898E-05
379.814,-5.252957E-05
379.914,-5.254369E-05
380.014,-5.249943E-05
380.114,-5.250508E-05
380.214,-5.252109E-05
380.314,-5.252391E-05
380.414,-5.2474E-05
380.514,-5.246082E-05
380.614,-5.246458E-05
380.714,-5.244387E-05
380.814,-5.246176E-05
380.914,-5.242597E-05
381.014,-5.244575E-05
381.114,-5.242221E-05
381.2141,-5.238736E-05
381.3141,-5.239584E-05
381.4141,-5.239113E-05
381.5141,-5.237983E-05
381.6141,-5.235158E-05
381.7141,-5.234122E-05
381.8141,-5.235252E-05
381.9141,-5.234593E-05
382.0141,-5.231108E-05
382.1141,-5.229507E-05
382.2141,-5.228754E-05
382.3141,-5.22979E-05
382.4141,-5.226588E-05
382.5141,-5.227059E-05
382.6141,-5.224893E-05
382.7141,-5.225081E-05
382.8141,-5.224328E-05
382.9142,-5.222256E-05
383.0142,-5.223009E-05
383.1142,-5.223951E-05
383.2142,-5.221786E-05
383.3142,-5.219055E-05
383.4142,-5.215382E-05
383.5142,-5.216135E-05
383.6142,-5.217736E-05
383.7142,-5.215193E-05
383.8142,-5.21152E-05
383.9142,-5.21265E-05
384.0142,-5.210391E-05
384.1142,-5.210673E-05
384.2142,-5.210579E-05
384.3142,-5.206812E-05
384.4142,-5.207565E-05
384.5143,-5.208507E-05
384.6143,-5.205399E-05
384.7143,-5.203892E-05
384.8143,-5.203422E-05
384.9143,-5.204269E-05
385.0143,-5.203798E-05
385.1143,-5.20295E-05
385.2143,-5.198995E-05
385.3143,-5.197394E-05
385.4143,-5.199372E-05
385.5143,-5.196829E-05
385.6143,-5.196641E-05
385.7143,-5.196359E-05
385.8143,-5.193722E-05
385.9143,-5.192968E-05
386.0143,-5.192403E-05
386.1143,-5.190708E-05
386.2144,-5.190143E-05
386.3144,-5.189201E-05
386.4144,-5.187506E-05
386.5144,-5.187694E-05
386.6144,-5.186282E-05
386.7144,-5.18421E-05
386.8144,-5.185246E-05
386.9144,-5.184304E-05
387.0144,-5.182892E-05
387.1144,-5.18195E-05
387.2144,-5.180726E-05
387.3144,-5.178371E-05
387.4144,-5.180066E-05
387.5144,-5.178936E-05
387.6144,-5.1779E-05
387.7144,-5.177053E-05
387.8145,-5.17404E-05
387.9145,-5.172627E-05
388.0145,-5.173192E-05
388.1145,-5.172156E-05
388.2145,-5.169519E-05
388.3145,-5.169802E-05
388.4145,-5.167071E-05
388.5145,-5.167071E-05
388.6145,-5.167353E-05
388.7145,-5.163115E-05
388.8145,-5.164057E-05
388.9145,-5.167165E-05
389.0145,-5.16434E-05
389.1145,-5.163021E-05
389.2145,-5.163774E-05
389.3145,-5.162079E-05
389.4146,-5.161797E-05
389.5146,-5.161891E-05
389.6146,-5.160385E-05
389.7146,-5.159254E-05
389.8146,-5.158218E-05
389.9146,-5.155299E-05
390.0146,-5.153886E-05
390.1146,-5.154451E-05
390.2146,-5.150402E-05
390.3146,-5.150213E-05
390.4146,-5.153228E-05
390.5146,-5.152003E-05
390.6146,-5.150025E-05
390.7146,-5.147012E-05
390.8146,-5.1472E-05
390.9146,-5.143716E-05
391.0146,-5.145882E-05
391.1147,-5.146824E-05
391.2147,-5.143151E-05
391.3147,-5.142586E-05
391.4147,-5.14089E-05
391.5147,-5.138442E-05
391.6147,-5.140137E-05
391.7147,-5.139572E-05
391.8147,-5.136747E-05
391.9147,-5.138819E-05
392.0147,-5.135899E-05
392.1147,-5.134392E-05
392.2147,-5.135711E-05
392.3147,-5.133168E-05
392.4147,-5.131002E-05
392.5147,-5.13185E-05
392.6147,-5.130908E-05
392.7148,-5.128742E-05
392.8148,-5.128271E-05
392.9148,-5.127706E-05
393.0148,-5.12554E-05
393.1148,-5.126953E-05
393.2148,-5.12554E-05
393.3148,-5.122338E-05
393.4148,-5.122903E-05
393.5148,-5.121585E-05
393.6148,-5.11989E-05
393.7148,-5.121962E-05
393.8148,-5.119513E-05
393.9148,-5.117065E-05
394.0148,-5.118383E-05
394.1148,-5.118289E-05
394.2148,-5.114993E-05
394.3148,-5.115087E-05
394.4149,-5.114334E-05
394.5149,-5.112073E-05
394.6149,-5.113957E-05
394.7149,-5.112168E-05
394.8149,-5.10906E-05
394.9149,-5.111885E-05
395.0149,-5.108777E-05
395.1149,-5.106423E-05
395.2149,-5.108118E-05
395.3149,-5.104728E-05
395.4149,-5.104069E-05
395.5149,-5.105482E-05
395.6149,-5.103598E-05
395.7149,-5.100961E-05
395.8149,-5.102468E-05
395.9149,-5.10049E-05
396.015,-5.098513E-05
396.115,-5.099643E-05
396.215,-5.09823E-05
396.315,-5.097477E-05
396.415,-5.09823E-05
396.515,-5.095499E-05
396.615,-5.092956E-05
396.715,-5.095782E-05
396.815,-5.092015E-05
396.915,-5.092015E-05
397.015,-5.092486E-05
397.115,-5.091167E-05
397.215,-5.087306E-05
397.315,-5.090131E-05
397.415,-5.088342E-05
397.515,-5.08514E-05
397.6151,-5.087212E-05
397.7151,-5.084386E-05
397.8151,-5.082503E-05
397.9151,-5.083162E-05
398.0151,-5.080525E-05
398.1151,-5.078925E-05
398.2151,-5.079584E-05
398.3151,-5.077418E-05
398.4151,-5.075723E-05
398.5151,-5.076194E-05
398.6151,-5.074875E-05
398.7151,-5.074781E-05
398.8151,-5.075817E-05
398.9151,-5.075063E-05
399.0151,-5.071108E-05
399.1151,-5.072238E-05
399.2151,-5.069319E-05
399.3152,-5.06979E-05
399.4152,-5.071014E-05
399.5152,-5.070826E-05
399.6152,-5.066494E-05
399.7152,-5.068E-05
399.8152,-5.067906E-05
399.9152,-5.063857E-05
400.0152,-5.063857E-05
400.1152,-5.063951E-05
400.2152,-5.061031E-05
400.3152,-5.059243E-05
400.4152,-5.057265E-05
400.5152,-5.056229E-05
400.6152,-5.055663E-05
400.7152,-5.054722E-05
400.8152,-5.05265E-05
400.9153,-5.052462E-05
401.0153,-5.052462E-05
401.1153,-5.049731E-05
401.2153,-5.050579E-05
401.3153,-5.048036E-05
401.4153,-5.050861E-05
401.5153,-5.048601E-05
401.6153,-5.046812E-05
401.7153,-5.043516E-05
401.8153,-5.045022E-05
401.9153,-5.04587E-05
402.0153,-5.042762E-05
402.1153,-5.04361E-05
402.2153,-5.041443E-05
402.3153,-5.040408E-05
402.4153,-5.040408E-05
402.5154,-5.041443E-05
402.6154,-5.036547E-05
402.7154,-5.037394E-05
402.8154,-5.0373E-05
402.9154,-5.035134E-05
403.0154,-5.035134E-05
403.1154,-5.034757E-05
403.2154,-5.033251E-05
403.3154,-5.032968E-05
403.4154,-5.032026E-05
403.5154,-5.029484E-05
403.6154,-5.031932E-05
403.7154,-5.029484E-05
403.8154,-5.026564E-05
403.9154,-5.027317E-05
404.0154,-5.026094E-05
404.1154,-5.024963E-05
404.2155,-5.026282E-05
404.3155,-5.02421E-05
404.4155,-5.022986E-05
404.5155,-5.021291E-05
404.6155,-5.020443E-05
404.7155,-5.017618E-05
404.8155,-5.022797E-05
404.9155,-5.01856E-05
405.0155,-5.016959E-05
405.1155,-5.018089E-05
405.2155,-5.014698E-05
405.3155,-5.013662E-05
405.4155,-5.015263E-05
405.5155,-5.011967E-05
405.6155,-5.010555E-05
405.7155,-5.013286E-05
405.8156,-5.013662E-05
405.9156,-5.010931E-05
406.0156,-5.009707E-05
406.1156,-5.009236E-05
406.2156,-5.007918E-05
406.3156,-5.007918E-05
406.4156,-5.005281E-05
406.5156,-5.002645E-05
406.6156,-5.004716E-05
406.7156,-5.005187E-05
406.8156,-5.000855E-05
406.9156,-5.001326E-05
407.0156,-4.999066E-05
407.1156,-4.999066E-05
407.2156,-5.000196E-05
407.3156,-4.9969E-05
407.4156,-4.996523E-05
407.5157,-4.998595E-05
407.6157,-4.997653E-05
407.7157,-4.996147E-05
407.8157,-4.995204E-05
407.9157,-4.991909E-05
408.0157,-4.991909E-05
408.1157,-4.992662E-05
408.2157,-4.991814E-05
408.3157,-4.989083E-05
408.4157,-4.987953E-05
408.5157,-4.986729E-05
408.6157,-4.986729E-05
408.7157,-4.986352E-05
408.8157,-4.985599E-05
408.9157,-4.983809E-05
409.0157,-4.985693E-05
409.1158,-4.982021E-05
409.2158,-4.979289E-05
409.3158,-4.980608E-05
409.4158,-4.980043E-05
409.5158,-4.977971E-05
409.6158,-4.978159E-05
409.7158,-4.975617E-05
409.8158,-4.97411E-05
409.9158,-4.975617E-05
410.0158,-4.973827E-05
410.1158,-4.971379E-05
410.2158,-4.971096E-05
410.3158,-4.969213E-05
410.4158,-4.969213E-05
410.5158,-4.97185E-05
410.6158,-4.968554E-05
410.7159,-4.966106E-05
410.8159,-4.965258E-05
410.9159,-4.964975E-05
411.0159,-4.964693E-05
411.1159,-4.964693E-05
411.2159,-4.961962E-05
411.3159,-4.96036E-05
411.4159,-4.959137E-05
411.5159,-4.9581E-05
411.6159,-4.957818E-05
411.7159,-4.960455E-05
411.8159,-4.95697E-05
411.9159,-4.952168E-05
412.0159,-4.95584E-05
412.1159,-4.953298E-05
412.2159,-4.950849E-05
412.3159,-4.953957E-05
412.416,-4.955464E-05
412.516,-4.951602E-05
412.616,-4.951132E-05
412.716,-4.948213E-05
412.816,-4.945481E-05
412.916,-4.948683E-05
413.016,-4.948118E-05
413.116,-4.944539E-05
413.216,-4.945199E-05
413.316,-4.943221E-05
413.416,-4.943032E-05
413.516,-4.942656E-05
413.616,-4.940208E-05
413.716,-4.936158E-05
413.816,-4.93823E-05
413.916,-4.937759E-05
414.0161,-4.938795E-05
414.1161,-4.93644E-05
414.2161,-4.933239E-05
414.3161,-4.931355E-05
414.4161,-4.931826E-05
414.5161,-4.931544E-05
414.6161,-4.929566E-05
414.7161,-4.931544E-05
414.8161,-4.929283E-05
414.9161,-4.9274E-05
415.0161,-4.929283E-05
415.1161,-4.927306E-05
415.2161,-4.925517E-05
415.3161,-4.925328E-05
415.4161,-4.922408E-05
415.5161,-4.920431E-05
415.6161,-4.923539E-05
415.7162,-4.922503E-05
415.8162,-4.919113E-05
415.9162,-4.920902E-05
416.0162,-4.917794E-05
416.1162,-4.919019E-05
416.2162,-4.918548E-05
416.3162,-4.916194E-05
416.4162,-4.914969E-05
416.5162,-4.915157E-05
416.6162,-4.913933E-05
416.7162,-4.913462E-05
416.8162,-4.913274E-05
416.9162,-4.912709E-05
417.0162,-4.908189E-05
417.1162,-4.909225E-05
417.2162,-4.908471E-05
417.3163,-4.907247E-05
417.4163,-4.908283E-05
417.5163,-4.905269E-05
417.6163,-4.904045E-05
417.7163,-4.904799E-05
417.8163,-4.902821E-05
417.9163,-4.902067E-05
418.0163,-4.901691E-05
418.1163,-4.900937E-05
418.2163,-4.899619E-05
418.3163,-4.900089E-05
418.4163,-4.896888E-05
418.5163,-4.897924E-05
418.6163,-4.896699E-05
418.7163,-4.896229E-05
418.8163,-4.894345E-05
418.9164,-4.895663E-05
419.0164,-4.893403E-05
419.1164,-4.892085E-05
419.2164,-4.891803E-05
419.3164,-4.89039E-05
419.4164,-4.889825E-05
419.5164,-4.891614E-05
419.6164,-4.886906E-05
419.7164,-4.886623E-05
419.8164,-4.886811E-05
419.9164,-4.886246E-05
420.0164,-4.88521E-05
420.1164,-4.884834E-05
420.2164,-4.882762E-05
420.3164,-4.880972E-05
420.4164,-4.88182E-05
420.5164,-4.880972E-05
420.6165,-4.878148E-05
420.7165,-4.878712E-05
420.8165,-4.877394E-05
420.9165,-4.877111E-05
421.0165,-4.87843E-05
421.1165,-4.876547E-05
421.2165,-4.873251E-05
421.3165,-4.874474E-05
421.4165,-4.871932E-05
421.5165,-4.871461E-05
421.6165,-4.873062E-05
421.7165,-4.870614E-05
421.8165,-4.868448E-05
421.9165,-4.869672E-05
422.0165,-4.8676E-05
422.1165,-4.865528E-05
422.2166,-4.867223E-05
422.3166,-4.865434E-05
422.4166,-4.862703E-05
422.5166,-4.864492E-05
422.6166,-4.862985E-05
422.7166,-4.859784E-05
422.8166,-4.85969E-05
422.9166,-4.860254E-05
423.0166,-4.859124E-05
423.1166,-4.85903E-05
423.2166,-4.858371E-05
423.3166,-4.855075E-05
423.4166,-4.856581E-05
423.5166,-4.854981E-05
423.6166,-4.85338E-05
423.7166,-4.85451E-05
423.8167,-4.851214E-05
423.9167,-4.850272E-05
424.0167,-4.854039E-05
424.1167,-4.850931E-05
424.2167,-4.848389E-05
424.3167,-4.848954E-05
424.4167,-4.847164E-05
424.5167,-4.846223E-05
424.6167,-4.847353E-05
424.7167,-4.845186E-05
424.8167,-4.842079E-05
424.9167,-4.843303E-05
425.0167,-4.844151E-05
425.1167,-4.840478E-05
425.2167,-4.841326E-05
425.3167,-4.839254E-05
425.4167,-4.840384E-05
425.5168,-4.842361E-05
425.6168,-4.841608E-05
425.7168,-4.837653E-05
425.8168,-4.838124E-05
425.9168,-4.8369E-05
426.0168,-4.831909E-05
426.1168,-4.83577E-05
426.2168,-4.835204E-05
426.3168,-4.833603E-05
426.4168,-4.831532E-05
426.5168,-4.830684E-05
426.6168,-4.829554E-05
426.7168,-4.83059E-05
426.8168,-4.833227E-05
426.9168,-4.827483E-05
427.0168,-4.827859E-05
427.1169,-4.826729E-05
427.2169,-4.827765E-05
427.3169,-4.827671E-05
427.4169,-4.825787E-05
427.5169,-4.823056E-05
427.6169,-4.823339E-05
427.7169,-4.822302E-05
427.8169,-4.821926E-05
427.9169,-4.822114E-05
428.0169,-4.81863E-05
428.1169,-4.816182E-05
428.2169,-4.81863E-05
428.3169,-4.817123E-05
428.4169,-4.815899E-05
428.5169,-4.814204E-05
428.6169,-4.814957E-05
428.7169,-4.812509E-05
428.817,-4.814769E-05
428.917,-4.812885E-05
429.017,-4.81006E-05
429.117,-4.808836E-05
429.217,-4.808647E-05
429.317,-4.805822E-05
429.417,-4.808836E-05
429.517,-4.809213E-05
429.617,-4.804881E-05
429.717,-4.805822E-05
429.817,-4.805069E-05
429.917,-4.804127E-05
430.017,-4.804599E-05
430.117,-4.802715E-05
430.217,-4.80036E-05
430.317,-4.800925E-05
430.4171,-4.801302E-05
430.5171,-4.798948E-05
430.6171,-4.798665E-05
430.7171,-4.798759E-05
430.8171,-4.79584E-05
430.9171,-4.796405E-05
431.0171,-4.795934E-05
431.1171,-4.794051E-05
431.2171,-4.793203E-05
431.3171,-4.792167E-05
431.4171,-4.79019E-05
431.5171,-4.790849E-05
431.6171,-4.791508E-05
431.7171,-4.78727E-05
431.8171,-4.787835E-05
431.9171,-4.786423E-05
432.0172,-4.784069E-05
432.1172,-4.78501E-05
432.2172,-4.784069E-05
432.3172,-4.781526E-05
432.4172,-4.781337E-05
432.5172,-4.781432E-05
432.6172,-4.780019E-05
432.7172,-4.780584E-05
432.8172,-4.77823E-05
432.9172,-4.775311E-05
433.0172,-4.777476E-05
433.1172,-4.777571E-05
433.2172,-4.775405E-05
433.3172,-4.774933E-05
433.4172,-4.772391E-05
433.5172,-4.772673E-05
433.6172,-4.77258E-05
433.7173,-4.772014E-05
433.8173,-4.770131E-05
433.9173,-4.770225E-05
434.0173,-4.768907E-05
434.1173,-4.7674E-05
434.2173,-4.768248E-05
434.3173,-4.767306E-05
434.4173,-4.765139E-05
434.5173,-4.765893E-05
434.6173,-4.764104E-05
434.7173,-4.76222E-05
434.8173,-4.76335E-05
434.9173,-4.760902E-05
435.0173,-4.760713E-05
435.1173,-4.760054E-05
435.2173,-4.759207E-05
435.3174,-4.757512E-05
435.4174,-4.758924E-05
435.5174,-4.758736E-05
435.6174,-4.755628E-05
435.7174,-4.754687E-05
435.8174,-4.756382E-05
435.9174,-4.753744E-05
436.0174,-4.754875E-05
436.1174,-4.754404E-05
436.2174,-4.752049E-05
436.3174,-4.750919E-05
436.4174,-4.749978E-05
436.5174,-4.749413E-05
436.6174,-4.748659E-05
436.7174,-4.748E-05
436.8174,-4.748753E-05
436.9174,-4.745928E-05
437.0175,-4.745834E-05
437.1175,-4.74282E-05
437.2175,-4.744139E-05
437.3175,-4.743857E-05
437.4175,-4.743574E-05
437.5175,-4.741973E-05
437.6175,-4.742915E-05
437.7175,-4.741126E-05
437.8175,-4.739901E-05
437.9175,-4.739619E-05
438.0175,-4.738866E-05
438.1175,-4.73717E-05
438.2175,-4.736794E-05
438.3175,-4.735192E-05
438.4175,-4.734628E-05
438.5175,-4.735757E-05
438.6176,-4.731991E-05
438.7176,-4.732273E-05
438.8176,-4.733592E-05
438.9176,-4.730955E-05
439.0176,-4.730013E-05
439.1176,-4.732367E-05
439.2176,-4.730578E-05
439.3176,-4.728883E-05
439.4176,-4.730107E-05
439.5176,-4.727565E-05
439.6176,-4.725304E-05
439.7176,-4.727282E-05
439.8176,-4.725304E-05
439.9176,-4.725022E-05
440.0176,-4.726152E-05
440.1176,-4.722668E-05
440.2177,-4.721349E-05
440.3177,-4.723233E-05
440.4177,-4.718901E-05
440.5177,-4.72003E-05
440.6177,-4.721537E-05
440.7177,-4.720596E-05
440.8177,-4.719183E-05
440.9177,-4.716923E-05
441.0177,-4.715981E-05
441.1177,-4.714663E-05
441.2177,-4.718053E-05
441.3177,-4.715793E-05
441.4177,-4.71325E-05
441.5177,-4.712779E-05
441.6177,-4.71099E-05
441.7177,-4.710519E-05
441.8177,-4.71325E-05
441.9178,-4.708918E-05
442.0178,-4.707411E-05
442.1178,-4.710331E-05
442.2178,-4.710802E-05
442.3178,-4.708541E-05
442.4178,-4.707129E-05
442.5178,-4.707129E-05
442.6178,-4.704398E-05
442.7178,-4.706093E-05
442.8178,-4.702797E-05
442.9178,-4.701384E-05
443.0178,-4.704115E-05
443.1178,-4.701102E-05
443.2178,-4.698936E-05
443.3178,-4.698465E-05
443.4178,-4.697335E-05
443.5179,-4.695169E-05
443.6179,-4.697335E-05
443.7179,-4.694886E-05
443.8179,-4.693003E-05
443.9179,-4.693662E-05
444.0179,-4.690931E-05
444.1179,-4.691308E-05
444.2179,-4.691873E-05
444.3179,-4.689707E-05
444.4179,-4.687541E-05
444.5179,-4.688765E-05
444.6179,-4.686976E-05
444.7179,-4.686317E-05
444.8179,-4.68707E-05
444.9179,-4.686129E-05
445.0179,-4.683586E-05
445.118,-4.68481E-05
445.218,-4.685092E-05
445.318,-4.681985E-05
445.418,-4.681796E-05
445.518,-4.681514E-05
445.618,-4.680101E-05
445.718,-4.681043E-05
445.818,-4.679442E-05
445.918,-4.676994E-05
446.018,-4.677465E-05
446.118,-4.677276E-05
446.218,-4.674734E-05
446.318,-4.676617E-05
446.418,-4.675958E-05
446.518,-4.673321E-05
446.618,-4.674263E-05
446.718,-4.671343E-05
446.8181,-4.671155E-05
446.9181,-4.670872E-05
447.0181,-4.671531E-05
447.1181,-4.667671E-05
447.2181,-4.668801E-05
447.3181,-4.669271E-05
447.4181,-4.665976E-05
447.5181,-4.665881E-05
447.6181,-4.665316E-05
447.7181,-4.662208E-05
447.8181,-4.664186E-05
447.9181,-4.662585E-05
448.0181,-4.660514E-05
448.1181,-4.661926E-05
448.2181,-4.659666E-05
448.3181,-4.658724E-05
448.4182,-4.658159E-05
448.5182,-4.657217E-05
448.6182,-4.65571E-05
448.7182,-4.657971E-05
448.8182,-4.65524E-05
448.9182,-4.653733E-05
449.0182,-4.655428E-05
449.1182,-4.652697E-05
449.2182,-4.652038E-05
449.3182,-4.65185E-05
449.4182,-4.652132E-05
449.5182,-4.649966E-05
449.6182,-4.649401E-05
449.7182,-4.648271E-05
449.8182,-4.646481E-05
449.9182,-4.647046E-05
450.0182,-4.647518E-05
450.1183,-4.645822E-05
450.2183,-4.645822E-05
450.3183,-4.645257E-05
450.4183,-4.642997E-05
450.5183,-4.644881E-05
450.6183,-4.643374E-05
450.7183,-4.642244E-05
450.8183,-4.641679E-05
450.9183,-4.640643E-05
451.0183,-4.640266E-05
451.1183,-4.639042E-05
451.2183,-4.638288E-05
451.3183,-4.637723E-05
451.4183,-4.637535E-05
451.5183,-4.635557E-05
451.6183,-4.634898E-05
451.7184,-4.634427E-05
451.8184,-4.634615E-05
451.9184,-4.633486E-05
452.0184,-4.633957E-05
452.1184,-4.634239E-05
452.2184,-4.631602E-05
452.3184,-4.631696E-05
452.4184,-4.631226E-05
452.5184,-4.630284E-05
452.6184,-4.629907E-05
452.7184,-4.629248E-05
452.8184,-4.626234E-05
452.9184,-4.627741E-05
453.0184,-4.6268E-05
453.1184,-4.624633E-05
453.2184,-4.623786E-05
453.3185,-4.623409E-05
453.4185,-4.621337E-05
453.5185,-4.621243E-05
453.6185,-4.623503E-05
453.7185,-4.620961E-05
453.8185,-4.619925E-05
453.9185,-4.619077E-05
454.0185,-4.617382E-05
454.1185,-4.617099E-05
454.2185,-4.617853E-05
454.3185,-4.615311E-05
454.4185,-4.614274E-05
454.5185,-4.614557E-05
454.6185,-4.612391E-05
454.7185,-4.612108E-05
454.8185,-4.612485E-05
454.9185,-4.611073E-05
455.0186,-4.610225E-05
455.1186,-4.610602E-05
455.2186,-4.608812E-05
455.3186,-4.608059E-05
455.4186,-4.608059E-05
455.5186,-4.606175E-05
455.6186,-4.606835E-05
455.7186,-4.605611E-05
455.8186,-4.60448E-05
455.9186,-4.604198E-05
456.0186,-4.604669E-05
456.1186,-4.602597E-05
456.2186,-4.601184E-05
456.3186,-4.603256E-05
456.4186,-4.599583E-05
456.5186,-4.598736E-05
456.6187,-4.600431E-05
456.7187,-4.596287E-05
456.8187,-4.596853E-05
456.9187,-4.598924E-05
457.0187,-4.596193E-05
457.1187,-4.596005E-05
457.2187,-4.597135E-05
457.3187,-4.592991E-05
457.4187,-4.592332E-05
457.5187,-4.59544E-05
457.6187,-4.593744E-05
457.7187,-4.591108E-05
457.8187,-4.592049E-05
457.9187,-4.59318E-05
458.0187,-4.591296E-05
458.1187,-4.587718E-05
458.2188,-4.588565E-05
458.3188,-4.587811E-05
458.4188,-4.590166E-05
458.5188,-4.587246E-05
458.6188,-4.582255E-05
458.7188,-4.586399E-05
458.8188,-4.586493E-05
458.9188,-4.583574E-05
459.0188,-4.582538E-05
459.1188,-4.578583E-05
459.2188,-4.578488E-05
459.3188,-4.58235E-05
459.4188,-4.579619E-05
459.5188,-4.576511E-05
459.6188,-4.577641E-05
459.7188,-4.577453E-05
459.8188,-4.57717E-05
459.9189,-4.579148E-05
460.0189,-4.575663E-05
460.1189,-4.571614E-05
460.2189,-4.575663E-05
460.3189,-4.575098E-05
460.4189,-4.570766E-05
460.5189,-4.573121E-05
460.6189,-4.57039E-05
460.7189,-4.569071E-05
460.8189,-4.569165E-05
460.9189,-4.566152E-05
461.0189,-4.56521E-05
461.1189,-4.568506E-05
461.2189,-4.564456E-05
461.3189,-4.563044E-05
461.4189,-4.565399E-05
461.519,-4.565775E-05
461.619,-4.564362E-05
461.719,-4.562385E-05
461.819,-4.562103E-05
461.919,-4.560125E-05
462.019,-4.562103E-05
462.119,-4.560878E-05
462.219,-4.559089E-05
462.319,-4.558995E-05
462.419,-4.556452E-05
462.519,-4.556829E-05
462.619,-4.558901E-05
462.719,-4.554663E-05
462.819,-4.552873E-05
462.919,-4.554757E-05
463.019,-4.551461E-05
463.119,-4.552497E-05
463.2191,-4.553344E-05
463.3191,-4.55099E-05
463.4191,-4.548635E-05
463.5191,-4.550331E-05
463.6191,-4.551178E-05
463.7191,-4.549672E-05
463.8191,-4.547788E-05
463.9191,-4.543456E-05
464.0191,-4.546846E-05
464.1191,-4.551367E-05
464.2191,-4.551178E-05
464.3191,-4.544774E-05
464.4191,-4.54581E-05
464.5191,-4.547317E-05
464.6191,-4.544963E-05
464.7191,-4.542891E-05
464.8192,-4.541667E-05
464.9192,-4.540914E-05
465.0192,-4.542232E-05
465.1192,-4.540819E-05
465.2192,-4.538089E-05
465.3192,-4.539312E-05
465.4192,-4.534227E-05
465.5192,-4.535734E-05
465.6192,-4.536016E-05
465.7192,-4.534133E-05
465.8192,-4.531779E-05
465.9192,-4.533568E-05
466.0192,-4.532815E-05
466.1192,-4.532626E-05
466.2192,-4.531685E-05
466.3192,-4.529424E-05
466.4193,-4.529801E-05
466.5193,-4.529613E-05
466.6193,-4.52481E-05
466.7193,-4.524904E-05
466.8193,-4.526505E-05
466.9193,-4.525657E-05
467.0193,-4.522456E-05
467.1193,-4.521137E-05
467.2193,-4.523115E-05
467.3193,-4.52076E-05
467.4193,-4.521419E-05
467.5193,-4.519631E-05
467.6193,-4.521326E-05
467.7193,-4.52255E-05
467.8193,-4.524527E-05
467.9193,-4.519631E-05
468.0193,-4.518312E-05
468.1194,-4.520289E-05
468.2194,-4.516146E-05
468.3194,-4.518218E-05
468.4194,-4.513886E-05
468.5194,-4.511155E-05
468.6194,-4.514074E-05
468.7194,-4.51285E-05
468.8194,-4.510778E-05
468.9194,-4.510872E-05
469.0194,-4.510307E-05
469.1194,-4.510872E-05
469.2194,-4.512662E-05
469.3194,-4.508141E-05
469.4194,-4.508989E-05
469.5194,-4.509271E-05
469.6194,-4.506917E-05
469.7195,-4.504751E-05
469.8195,-4.506258E-05
469.9195,-4.505881E-05
470.0195,-4.504186E-05
470.1195,-4.504092E-05
470.2195,-4.502208E-05
470.3195,-4.500136E-05
470.4195,-4.501361E-05
470.5195,-4.498536E-05
470.6195,-4.499289E-05
470.7195,-4.497594E-05
470.8195,-4.497311E-05
470.9195,-4.497029E-05
471.0195,-4.49797E-05
471.1195,-4.495239E-05
471.2195,-4.494203E-05
471.3195,-4.493827E-05
471.4196,-4.493544E-05
471.5196,-4.491661E-05
471.6196,-4.492791E-05
471.7196,-4.49119E-05
471.8196,-4.489307E-05
471.9196,-4.489777E-05
472.0196,-4.489212E-05
472.1196,-4.488553E-05
472.2196,-4.489118E-05
472.3196,-4.487423E-05
472.4196,-4.487706E-05
472.5196,-4.487423E-05
472.6196,-4.486105E-05
472.7196,-4.484315E-05
472.8196,-4.485069E-05
472.9196,-4.484692E-05
473.0197,-4.483091E-05
473.1197,-4.483186E-05
473.2197,-4.481396E-05
473.3197,-4.480454E-05
473.4197,-4.481302E-05
473.5197,-4.479042E-05
473.6197,-4.478194E-05
473.7197,-4.477252E-05
473.8197,-4.478571E-05
473.9197,-4.478948E-05
474.0197,-4.480171E-05
474.1197,-4.477535E-05
474.2197,-4.476405E-05
474.3197,-4.476688E-05
474.4197,-4.475086E-05
474.5197,-4.47405E-05
474.6198,-4.473203E-05
474.7198,-4.472261E-05
474.8198,-4.469624E-05
474.9198,-4.47179E-05
475.0198,-4.47292E-05
475.1198,-4.467458E-05
475.2198,-4.467647E-05
475.3198,-4.466516E-05
475.4198,-4.467741E-05
475.5198,-4.468306E-05
475.6198,-4.46614E-05
475.7198,-4.462938E-05
475.8198,-4.46501E-05
475.9198,-4.466046E-05
476.0198,-4.463786E-05
476.1198,-4.463032E-05
476.2198,-4.46322E-05
476.3199,-4.461902E-05
476.4199,-4.460961E-05
476.5199,-4.458418E-05
476.6199,-4.459736E-05
476.7199,-4.459265E-05
476.8199,-4.458135E-05
476.9199,-4.45823E-05
477.0199,-4.458041E-05
477.1199,-4.45757E-05
477.2199,-4.455593E-05
477.3199,-4.455781E-05
477.4199,-4.456911E-05
477.5199,-4.455687E-05
477.6199,-4.45418E-05
477.7199,-4.453615E-05
477.8199,-4.45418E-05
477.92,-4.453332E-05
478.02,-4.451638E-05
478.12,-4.449188E-05
478.22,-4.451449E-05
478.32,-4.451449E-05
478.42,-4.44853E-05
478.52,-4.4474E-05
478.62,-4.44674E-05
478.72,-4.448341E-05
478.82,-4.446552E-05
478.92,-4.447023E-05
479.02,-4.443915E-05
479.12,-4.443821E-05
479.22,-4.444951E-05
479.32,-4.444104E-05
479.42,-4.441466E-05
479.5201,-4.440525E-05
479.6201,-4.440336E-05
479.7201,-4.441184E-05
479.8201,-4.441655E-05
479.9201,-4.440243E-05
480.0201,-4.439772E-05
480.1201,-4.439583E-05
480.2201,-4.436758E-05
480.3201,-4.437605E-05
480.4201,-4.439583E-05
480.5201,-4.436193E-05
480.6201,-4.437229E-05
480.7201,-4.434592E-05
480.8201,-4.434309E-05
480.9201,-4.435722E-05
481.0201,-4.433839E-05
481.1201,-4.433839E-05
481.2202,-4.431673E-05
481.3202,-4.430825E-05
481.4202,-4.430448E-05
481.5202,-4.430637E-05
481.6202,-4.430354E-05
481.7202,-4.427717E-05
481.8202,-4.428094E-05
481.9202,-4.429318E-05
482.0202,-4.426116E-05
482.1202,-4.425834E-05
482.2202,-4.42461E-05
482.3202,-4.424233E-05
482.4202,-4.424421E-05
482.5202,-4.424327E-05
482.6202,-4.422726E-05
482.7202,-4.423197E-05
482.8203,-4.423008E-05
482.9203,-4.421973E-05
483.0203,-4.422067E-05
483.1203,-4.421125E-05
483.2203,-4.418582E-05
483.3203,-4.41943E-05
483.4203,-4.418677E-05
483.5203,-4.418394E-05
483.6203,-4.417453E-05
483.7203,-4.418206E-05
483.8203,-4.415663E-05
483.9203,-4.417076E-05
484.0203,-4.414627E-05
484.1203,-4.413591E-05
484.2203,-4.413403E-05
484.3203,-4.41378E-05
484.4203,-4.411708E-05
484.5204,-4.413027E-05
484.6204,-4.411802E-05
484.7204,-4.409636E-05
484.8204,-4.409165E-05
484.9204,-4.410672E-05
485.0204,-4.408412E-05
485.1204,-4.407282E-05
485.2204,-4.40747E-05
485.3204,-4.404268E-05
485.4204,-4.405022E-05
485.5204,-4.405775E-05
485.6204,-4.403609E-05
485.7204,-4.402196E-05
485.8204,-4.402008E-05
485.9204,-4.403327E-05
486.0204,-4.403703E-05
486.1205,-4.402667E-05
486.2205,-4.399089E-05
486.3205,-4.399559E-05
486.4205,-4.400407E-05
486.5205,-4.399371E-05
486.6205,-4.399559E-05
486.7205,-4.398523E-05
486.8205,-4.396735E-05
486.9205,-4.396923E-05
487.0205,-4.397017E-05
487.1205,-4.394474E-05
487.2205,-4.39438E-05
487.3205,-4.393344E-05
487.4205,-4.39099E-05
487.5205,-4.392026E-05
487.6205,-4.393156E-05
487.7206,-4.391366E-05
487.8206,-4.390613E-05
487.9206,-4.391932E-05
488.0206,-4.388918E-05
488.1206,-4.387505E-05
488.2206,-4.387882E-05
488.3206,-4.386281E-05
488.4206,-4.385434E-05
488.5206,-4.387317E-05
488.6206,-4.384869E-05
488.7206,-4.384586E-05
488.8206,-4.38468E-05
488.9206,-4.383644E-05
489.0206,-4.382608E-05
489.1206,-4.38242E-05
489.2206,-4.380725E-05
489.3206,-4.381102E-05
489.4207,-4.381102E-05
489.5207,-4.379689E-05
489.6207,-4.379218E-05
489.7207,-4.379877E-05
489.8207,-4.378559E-05
489.9207,-4.375639E-05
490.0207,-4.37724E-05
490.1207,-4.374886E-05
490.2207,-4.375169E-05
490.3207,-4.376204E-05
490.4207,-4.375263E-05
490.5207,-4.372155E-05
490.6207,-4.373191E-05
490.7207,-4.37046E-05
490.8207,-4.372155E-05
490.9207,-4.37159E-05
491.0208,-4.371213E-05
491.1208,-4.367258E-05
491.2208,-4.369519E-05
491.3208,-4.368859E-05
491.4208,-4.366882E-05
491.5208,-4.367164E-05
491.6208,-4.367823E-05
491.7208,-4.365281E-05
491.8208,-4.365281E-05
491.9208,-4.364904E-05
492.0208,-4.362644E-05
492.1208,-4.364621E-05
492.2208,-4.360949E-05
492.3208,-4.361137E-05
492.4208,-4.361608E-05
492.5208,-4.359913E-05
492.6208,-4.358783E-05
492.7209,-4.359253E-05
492.8209,-4.357841E-05
492.9209,-4.356711E-05
493.0209,-4.35737E-05
493.1209,-4.355487E-05
493.2209,-4.35398E-05
493.3209,-4.355863E-05
493.4209,-4.354356E-05
493.5209,-4.352755E-05
493.6209,-4.353509E-05
493.7209,-4.350872E-05
493.8209,-4.350307E-05
493.9209,-4.35219E-05
494.0209,-4.350684E-05
494.1209,-4.350024E-05
494.2209,-4.350401E-05
494.321,-4.349836E-05
494.421,-4.346446E-05
494.521,-4.347199E-05
494.621,-4.346917E-05
494.721,-4.344468E-05
494.821,-4.34654E-05
494.921,-4.343809E-05
495.021,-4.342773E-05
495.121,-4.34315E-05
495.221,-4.344186E-05
495.321,-4.341267E-05
495.421,-4.341737E-05
495.521,-4.339571E-05
495.621,-4.338724E-05
495.721,-4.340513E-05
495.821,-4.338441E-05
495.9211,-4.336369E-05
496.0211,-4.336181E-05
496.1211,-4.336463E-05
496.2211,-4.332696E-05
496.3211,-4.334769E-05
496.4211,-4.334015E-05
496.5211,-4.331849E-05
496.6211,-4.333168E-05
496.7211,-4.332037E-05
496.8211,-4.329306E-05
496.9211,-4.331473E-05
497.0211,-4.329495E-05
497.1211,-4.3278E-05
497.2211,-4.329683E-05
497.3211,-4.326764E-05
497.4211,-4.326293E-05
497.5211,-4.327046E-05
497.6212,-4.32667E-05
497.7212,-4.324692E-05
497.8212,-4.325822E-05
497.9212,-4.325727E-05
498.0212,-4.324598E-05
498.1212,-4.323185E-05
498.2212,-4.322432E-05
498.3212,-4.32149E-05
498.4212,-4.324409E-05
498.5212,-4.321207E-05
498.6212,-4.320642E-05
498.7212,-4.320454E-05
498.8212,-4.320454E-05
498.9212,-4.317629E-05
499.0212,-4.319513E-05
499.1212,-4.317441E-05
499.2213,-4.318948E-05
499.3213,-4.317064E-05
499.4213,-4.316687E-05
499.5213,-4.314333E-05
499.6213,-4.317252E-05
499.7213,-4.313203E-05
499.8213,-4.310566E-05
499.9213,-4.313768E-05
500.0213,-4.313768E-05
500.1213,-4.314333E-05
500.2213,-4.310566E-05
500.3213,-4.3084E-05
500.4213,-4.308777E-05
500.5213,-4.309059E-05
500.6213,-4.308588E-05
500.7213,-4.304256E-05
500.8214,-4.307364E-05
500.9214,-4.309436E-05
501.0214,-4.303409E-05
501.1214,-4.301337E-05
501.2214,-4.304162E-05
501.3214,-4.302467E-05
501.4214,-4.304916E-05
501.5214,-4.303409E-05
501.6214,-4.299642E-05
501.7214,-4.300112E-05
501.8214,-4.301431E-05
501.9214,-4.300112E-05
502.0214,-4.301055E-05
502.1214,-4.298606E-05
502.2214,-4.295969E-05
502.3214,-4.298041E-05
502.4214,-4.296157E-05
502.5215,-4.295592E-05
502.6215,-4.295404E-05
502.7215,-4.293426E-05
502.8215,-4.292579E-05
502.9215,-4.295121E-05
503.0215,-4.294462E-05
503.1215,-4.29305E-05
503.2215,-4.290507E-05
503.3215,-4.291825E-05
503.4215,-4.288059E-05
503.5215,-4.289094E-05
503.6215,-4.288529E-05
503.7215,-4.286552E-05
503.8215,-4.287399E-05
503.9215,-4.287023E-05
504.0215,-4.285045E-05
504.1216,-4.287117E-05
504.2216,-4.284292E-05
504.3216,-4.283067E-05
504.4216,-4.283915E-05
504.5216,-4.282879E-05
504.6216,-4.280902E-05
504.7216,-4.283632E-05
504.8216,-4.281372E-05
504.9216,-4.281466E-05
505.0216,-4.280242E-05
505.1216,-4.280148E-05
505.2216,-4.279394E-05
505.3216,-4.27883E-05
505.4216,-4.278359E-05
505.5216,-4.279959E-05
505.6216,-4.277981E-05
505.7216,-4.27704E-05
505.8217,-4.277888E-05
505.9217,-4.27478E-05
506.0217,-4.276005E-05
506.1217,-4.274215E-05
506.2217,-4.272897E-05
506.3217,-4.274968E-05
506.4217,-4.271013E-05
506.5217,-4.271202E-05
506.6217,-4.270825E-05
506.7217,-4.268471E-05
506.8217,-4.268659E-05
506.9217,-4.268565E-05
507.0217,-4.264798E-05
507.1217,-4.267152E-05
507.2217,-4.267152E-05
507.3217,-4.265645E-05
507.4218,-4.263385E-05
507.5218,-4.265645E-05
507.6218,-4.264892E-05
507.7218,-4.263856E-05
507.8218,-4.263762E-05
507.9218,-4.261031E-05
508.0218,-4.26122E-05
508.1218,-4.260372E-05
508.2218,-4.260372E-05
508.3218,-4.259807E-05
508.4218,-4.258865E-05
508.5218,-4.258771E-05
508.6218,-4.260843E-05
508.7218,-4.2583E-05
508.8218,-4.2583E-05
508.9218,-4.25651E-05
509.0219,-4.254627E-05
509.1219,-4.253968E-05
509.2219,-4.254439E-05
509.3219,-4.253874E-05
509.4219,-4.252273E-05
509.5219,-4.253121E-05
509.6219,-4.252273E-05
509.7219,-4.250672E-05
509.8219,-4.248695E-05
509.9219,-4.250013E-05
510.0219,-4.249165E-05
510.1219,-4.248506E-05
510.2219,-4.247187E-05
510.3219,-4.245586E-05
510.4219,-4.246811E-05
510.5219,-4.24568E-05
510.6219,-4.244174E-05
510.722,-4.244833E-05
510.822,-4.244362E-05
510.922,-4.242761E-05
511.022,-4.241914E-05
511.122,-4.243703E-05
511.222,-4.242385E-05
511.322,-4.241632E-05
511.422,-4.24116E-05
511.522,-4.239089E-05
511.622,-4.239748E-05
511.722,-4.240595E-05
511.822,-4.237676E-05
511.922,-4.238901E-05
512.022,-4.238523E-05
512.122,-4.23551E-05
512.222,-4.234097E-05
512.322,-4.235321E-05
512.4219,-4.234851E-05
512.5219,-4.235698E-05
512.6219,-4.234945E-05
512.7219,-4.232214E-05
512.8218,-4.232685E-05
512.9218,-4.23325E-05
513.0218,-4.233909E-05
513.1218,-4.231555E-05
513.2217,-4.233156E-05
513.3217,-4.231649E-05
513.4217,-4.230519E-05
513.5217,-4.230519E-05
513.6216,-4.231178E-05
513.7216,-4.230047E-05
513.8216,-4.228541E-05
513.9216,-4.226752E-05
514.0215,-4.22581E-05
514.1215,-4.228164E-05
514.2215,-4.22581E-05
514.3215,-4.222608E-05
514.4214,-4.226846E-05
514.5214,-4.225433E-05
514.6214,-4.222985E-05
514.7214,-4.222702E-05
514.8214,-4.220537E-05
514.9213,-4.218841E-05
515.0213,-4.223739E-05
515.1213,-4.221384E-05
515.2213,-4.219689E-05
515.3212,-4.219595E-05
515.4212,-4.217523E-05
515.5212,-4.216582E-05
515.6212,-4.21837E-05
515.7211,-4.217335E-05
515.8211,-4.215545E-05
515.9211,-4.21724E-05
516.0211,-4.214697E-05
516.121,-4.215733E-05
516.221,-4.214415E-05
516.321,-4.212814E-05
516.421,-4.211966E-05
516.5209,-4.212626E-05
516.6209,-4.211496E-05
516.7209,-4.209424E-05
516.8209,-4.210554E-05
516.9208,-4.208482E-05
517.0208,-4.208765E-05
517.1208,-4.209518E-05
517.2208,-4.209141E-05
517.3207,-4.207352E-05
517.4207,-4.205657E-05
517.5207,-4.206128E-05
517.6207,-4.204433E-05
517.7206,-4.207823E-05
517.8206,-4.205657E-05
517.9206,-4.204904E-05
518.0206,-4.204433E-05
518.1205,-4.202644E-05
518.2205,-4.200949E-05
518.3205,-4.202926E-05
518.4205,-4.201608E-05
518.5204,-4.200855E-05
518.6204,-4.201137E-05
518.7204,-4.198123E-05
518.8204,-4.199536E-05
518.9203,-4.199818E-05
519.0203,-4.199536E-05
519.1203,-4.197181E-05
519.2203,-4.198123E-05
519.3203,-4.194921E-05
519.4202,-4.197181E-05
519.5202,-4.1985E-05
519.6202,-4.194356E-05
519.7202,-4.194262E-05
519.8201,-4.196051E-05
519.9201,-4.192567E-05
520.0201,-4.19219E-05
520.1201,-4.194074E-05
520.22,-4.19398E-05
520.32,-4.192096E-05
520.42,-4.19172E-05
520.52,-4.190307E-05
520.6199,-4.187105E-05
520.7199,-4.192567E-05
520.8199,-4.189459E-05
520.9199,-4.187105E-05
521.0198,-4.186728E-05
521.1198,-4.187576E-05
521.2198,-4.188424E-05
521.3198,-4.189082E-05
521.4197,-4.185881E-05
521.5197,-4.183056E-05
521.6197,-4.184468E-05
521.7197,-4.184468E-05
521.8196,-4.183244E-05
521.9196,-4.183998E-05
522.0196,-4.180513E-05
522.1196,-4.180701E-05
522.2195,-4.181737E-05
522.3195,-4.181172E-05
522.4195,-4.178535E-05
522.5195,-4.180984E-05
522.6194,-4.178535E-05
522.7194,-4.176934E-05
522.8194,-4.178912E-05
522.9194,-4.177782E-05
523.0193,-4.175051E-05
523.1193,-4.178535E-05
523.2193,-4.176463E-05
523.3193,-4.175616E-05
523.4193,-4.175427E-05
523.5192,-4.17458E-05
523.6192,-4.173544E-05
523.7192,-4.174674E-05
523.8192,-4.17345E-05
523.9191,-4.170719E-05
524.0191,-4.171943E-05
524.1191,-4.170625E-05
524.2191,-4.170719E-05
524.319,-4.171189E-05
524.419,-4.169118E-05
524.519,-4.167988E-05
524.619,-4.169306E-05
524.7189,-4.167893E-05
524.8189,-4.16488E-05
524.9189,-4.16667E-05
525.0189,-4.165351E-05
525.1188,-4.163844E-05
525.2188,-4.166105E-05
525.3188,-4.164786E-05
525.4188,-4.163091E-05
525.5187,-4.163844E-05
525.6187,-4.162808E-05
525.7187,-4.161396E-05
525.8187,-4.163374E-05
525.9186,-4.160548E-05
526.0186,-4.159606E-05
526.1186,-4.161867E-05
526.2186,-4.161772E-05
526.3185,-4.158664E-05
526.4185,-4.159512E-05
526.5185,-4.158006E-05
526.6185,-4.155651E-05
526.7184,-4.159136E-05
526.8184,-4.155934E-05
526.9184,-4.155463E-05
527.0184,-4.155557E-05
527.1183,-4.154898E-05
527.2183,-4.153956E-05
527.3183,-4.15584E-05
527.4183,-4.153862E-05
527.5182,-4.151884E-05
527.6182,-4.152449E-05
527.7182,-4.152449E-05
527.8182,-4.149624E-05
527.9182,-4.150566E-05
528.0181,-4.150283E-05
528.1181,-4.148023E-05
528.2181,-4.149059E-05
528.3181,-4.147081E-05
528.418,-4.147929E-05
528.518,-4.147741E-05
528.618,-4.147458E-05
528.718,-4.145104E-05
528.8179,-4.144821E-05
528.9179,-4.145857E-05
529.0179,-4.145009E-05
529.1179,-4.143597E-05
529.2178,-4.143314E-05
529.3178,-4.140866E-05
529.4178,-4.143314E-05
529.5178,-4.141713E-05
529.6177,-4.138982E-05
529.7177,-4.140018E-05
529.8177,-4.139924E-05
529.9177,-4.139265E-05
530.0176,-4.139736E-05
530.1176,-4.137664E-05
530.2176,-4.135027E-05
530.3176,-4.136911E-05
530.4175,-4.136346E-05
530.5175,-4.136063E-05
530.6175,-4.135875E-05
530.7175,-4.133426E-05
530.8174,-4.132861E-05
530.9174,-4.133521E-05
531.0174,-4.134839E-05
531.1174,-4.132296E-05
531.2173,-4.130318E-05
531.3173,-4.134368E-05
531.4173,-4.130224E-05
531.5173,-4.129942E-05
531.6172,-4.131637E-05
531.7172,-4.131448E-05
531.8172,-4.130036E-05
531.9172,-4.129848E-05
532.0172,-4.129E-05
532.1171,-4.12787E-05
532.2171,-4.12787E-05
532.3171,-4.125328E-05
532.4171,-4.126646E-05
532.517,-4.127117E-05
532.617,-4.125328E-05
532.717,-4.123632E-05
532.817,-4.12561E-05
532.9169,-4.122973E-05
533.0169,-4.124291E-05
533.1169,-4.122597E-05
533.2169,-4.121655E-05
533.3168,-4.119865E-05
533.4168,-4.123727E-05
533.5168,-4.119583E-05
533.6168,-4.119394E-05
533.7167,-4.118924E-05
533.8167,-4.118359E-05
533.9167,-4.116475E-05
534.0167,-4.118171E-05
534.1166,-4.114592E-05
534.2166,-4.115439E-05
534.3166,-4.11591E-05
534.4166,-4.115345E-05
534.5165,-4.112708E-05
534.6165,-4.113744E-05
534.7165,-4.111107E-05
534.8165,-4.112802E-05
534.9164,-4.114498E-05
535.0164,-4.109977E-05
535.1164,-4.108941E-05
535.2164,-4.109129E-05
535.3163,-4.109506E-05
535.4163,-4.109035E-05
535.5163,-4.109789E-05
535.6163,-4.107529E-05
535.7162,-4.105551E-05
535.8162,-4.106492E-05
535.9162,-4.104327E-05
536.0162,-4.105363E-05
536.1161,-4.105645E-05
536.2161,-4.103856E-05
536.3161,-4.103668E-05
536.4161,-4.104233E-05
536.5161,-4.102066E-05
536.616,-4.100278E-05
536.716,-4.102537E-05
536.816,-4.101219E-05
536.916,-4.099147E-05
537.0159,-4.102255E-05
537.1159,-4.098677E-05
537.2159,-4.096134E-05
537.3159,-4.09943E-05
537.4158,-4.098771E-05
537.5158,-4.097546E-05
537.6158,-4.098017E-05
537.7158,-4.094909E-05
537.8157,-4.095098E-05
537.9157,-4.097546E-05
538.0157,-4.09651E-05
538.1157,-4.094344E-05
538.2156,-4.094533E-05
538.3156,-4.092461E-05
538.4156,-4.093874E-05
538.5156,-4.093685E-05
538.6155,-4.091896E-05
538.7155,-4.090013E-05
538.8155,-4.091802E-05
538.9155,-4.08973E-05
539.0154,-4.088505E-05
539.1154,-4.089824E-05
539.2154,-4.088694E-05
539.3154,-4.085492E-05
539.4153,-4.087564E-05
539.5153,-4.087658E-05
539.6153,-4.084739E-05
539.7153,-4.085586E-05
539.8152,-4.086434E-05
539.9152,-4.084079E-05
540.0152,-4.08521E-05
540.1152,-4.08342E-05
540.2151,-4.082102E-05
540.3151,-4.083609E-05
540.4151,-4.083797E-05
540.5151,-4.081725E-05
540.6151,-4.082384E-05
540.715,-4.081254E-05
540.815,-4.079842E-05
540.915,-4.082761E-05
541.015,-4.082102E-05
541.1149,-4.079182E-05
541.2149,-4.078335E-05
541.3149,-4.077394E-05
541.4149,-4.077394E-05
541.5148,-4.07777E-05
541.6148,-4.077016E-05
541.7148,-4.076075E-05
541.8148,-4.076169E-05
541.9147,-4.075887E-05
542.0147,-4.075321E-05
542.1147,-4.074851E-05
542.2147,-4.074474E-05
542.3146,-4.074191E-05
542.4146,-4.073815E-05
542.5146,-4.07212E-05
542.6146,-4.069294E-05
542.7145,-4.074285E-05
542.8145,-4.074945E-05
542.9145,-4.069294E-05
543.0145,-4.067694E-05
543.1144,-4.069954E-05
543.2144,-4.070425E-05
543.3144,-4.068352E-05
543.4144,-4.066469E-05
543.5143,-4.06468E-05
543.6143,-4.066375E-05
543.7143,-4.068164E-05
543.8143,-4.06468E-05
543.9142,-4.063832E-05
544.0142,-4.064397E-05
544.1142,-4.062608E-05
544.2142,-4.062137E-05
544.3141,-4.063832E-05
544.4141,-4.060065E-05
544.5141,-4.059971E-05
544.6141,-4.061007E-05
544.7141,-4.059406E-05
544.814,-4.060442E-05
544.914,-4.058841E-05
545.014,-4.056581E-05
545.114,-4.058088E-05
545.2139,-4.05837E-05
545.3139,-4.056958E-05
545.4139,-4.055451E-05
545.5139,-4.057334E-05
545.6138,-4.054227E-05
545.7138,-4.053756E-05
545.8138,-4.054227E-05
545.9138,-4.053473E-05
546.0137,-4.052437E-05
546.1137,-4.054227E-05
546.2137,-4.054038E-05
546.3137,-4.05159E-05
546.4136,-4.054132E-05
546.5136,-4.051684E-05
546.6136,-4.050837E-05
546.7136,-4.053191E-05
546.8135,-4.050931E-05
546.9135,-4.04707E-05
547.0135,-4.048388E-05
547.1135,-4.049047E-05
547.2134,-4.050459E-05
547.3134,-4.047258E-05
547.4134,-4.047163E-05
547.5134,-4.049801E-05
547.6133,-4.049236E-05
547.7133,-4.047352E-05
547.8133,-4.047163E-05
547.9133,-4.048671E-05
548.0132,-4.046033E-05
548.1132,-4.04415E-05
548.2132,-4.04368E-05
548.3132,-4.042267E-05
548.4131,-4.041231E-05
548.5131,-4.042361E-05
548.6131,-4.03963E-05
548.7131,-4.039724E-05
548.813,-4.04302E-05
548.913,-4.039253E-05
549.013,-4.037652E-05
549.113,-4.038876E-05
549.213,-4.03784E-05
549.3129,-4.036333E-05
549.4129,-4.033791E-05
549.5129,-4.033226E-05
549.6129,-4.035486E-05
549.7128,-4.035204E-05
549.8128,-4.034639E-05
549.9128,-4.031531E-05
550.0128,-4.03219E-05
550.1127,-4.03332E-05
550.2127,-4.02993E-05
550.3127,-4.029459E-05
550.4127,-4.030401E-05
550.5126,-4.031248E-05
550.6126,-4.030495E-05
550.7126,-4.029648E-05
550.8126,-4.027011E-05
550.9125,-4.027952E-05
551.0125,-4.029082E-05
551.1125,-4.02654E-05
551.2125,-4.02362E-05
551.3124,-4.025504E-05
551.4124,-4.026917E-05
551.5124,-4.026917E-05
551.6124,-4.025316E-05
551.7123,-4.022867E-05
551.8123,-4.023809E-05
551.9123,-4.023997E-05
552.0123,-4.021454E-05
552.1122,-4.02136E-05
552.2122,-4.020983E-05
552.3122,-4.020607E-05
552.4122,-4.021172E-05
552.5121,-4.022867E-05
552.6121,-4.018912E-05
552.7121,-4.01797E-05
552.8121,-4.021266E-05
552.912,-4.022302E-05
553.012,-4.018723E-05
553.112,-4.015992E-05
553.212,-4.017593E-05
553.312,-4.015898E-05
553.4119,-4.016275E-05
553.5119,-4.014486E-05
553.6119,-4.013826E-05
553.7119,-4.015522E-05
553.8118,-4.012602E-05
553.9118,-4.010718E-05
554.0118,-4.015898E-05
554.1118,-4.012979E-05
554.2117,-4.012696E-05
554.3117,-4.011472E-05
554.4117,-4.011378E-05
554.5117,-4.010813E-05
554.6116,-4.013544E-05
554.7116,-4.012414E-05
554.8116,-4.009306E-05
554.9116,-4.009024E-05
555.0115,-4.009965E-05
555.1115,-4.006951E-05
555.2115,-4.005068E-05
555.3115,-4.006669E-05
555.4114,-4.00714E-05
555.5114,-4.007799E-05
555.6114,-4.003656E-05
555.7114,-4.005351E-05
555.8113,-4.007988E-05
555.9113,-4.005163E-05
556.0113,-4.001867E-05
556.1113,-4.003279E-05
556.2112,-4.004126E-05
556.3112,-4.00196E-05
556.4112,-4.001584E-05
556.5112,-4.002149E-05
556.6111,-3.998759E-05
556.7111,-4.000077E-05
556.8111,-3.998099E-05
556.9111,-3.996404E-05
557.011,-3.999229E-05
557.111,-3.996593E-05
557.211,-3.995651E-05
557.311,-3.995745E-05
557.4109,-3.993673E-05
557.5109,-3.996122E-05
557.6109,-3.997158E-05
557.7109,-3.996499E-05
557.8109,-3.993108E-05
557.9108,-3.997063E-05
558.0108,-3.994521E-05
558.1108,-3.991507E-05
558.2108,-3.991884E-05
558.3107,-3.992449E-05
558.4107,-3.993203E-05
558.5107,-3.992449E-05
558.6107,-3.987929E-05
558.7106,-3.988871E-05
558.8106,-3.989624E-05
558.9106,-3.990377E-05
559.0106,-3.985857E-05
559.1105,-3.98548E-05
559.2105,-3.98774E-05
559.3105,-3.985292E-05
559.4105,-3.987552E-05
559.5104,-3.985386E-05
559.6104,-3.981054E-05
559.7104,-3.983785E-05
559.8104,-3.983691E-05
559.9103,-3.982279E-05
560.0103,-3.982467E-05
560.1103,-3.981242E-05
560.2103,-3.978323E-05
560.3102,-3.98096E-05
560.4102,-3.981619E-05
560.5102,-3.978323E-05
560.6102,-3.97757E-05
560.7101,-3.979736E-05
560.8101,-3.981054E-05
560.9101,-3.981525E-05
561.0101,-3.980395E-05
561.11,-3.978041E-05
561.21,-3.977381E-05
561.31,-3.974933E-05
561.41,-3.974085E-05
561.5099,-3.973991E-05
561.6099,-3.976252E-05
561.7099,-3.973897E-05
561.8099,-3.97465E-05
561.9099,-3.972955E-05
562.0098,-3.971354E-05
562.1098,-3.974933E-05
562.2098,-3.97578E-05
562.3098,-3.970695E-05
562.4097,-3.970978E-05
562.5097,-3.97126E-05
562.6097,-3.969941E-05
562.7097,-3.970318E-05
562.8096,-3.969659E-05
562.9096,-3.968058E-05
563.0096,-3.968153E-05
563.1096,-3.96787E-05
563.2095,-3.96674E-05
563.3095,-3.965139E-05
563.4095,-3.966646E-05
563.5095,-3.964291E-05
563.6094,-3.964762E-05
563.7094,-3.965233E-05
563.8094,-3.962879E-05
563.9094,-3.963067E-05
564.0093,-3.962314E-05
564.1093,-3.962125E-05
564.2093,-3.961937E-05
564.3093,-3.961843E-05
564.4092,-3.960054E-05
564.5092,-3.959959E-05
564.6092,-3.961278E-05
564.7092,-3.959677E-05
564.8091,-3.959583E-05
564.9091,-3.959865E-05
565.0091,-3.957699E-05
565.1091,-3.958076E-05
565.209,-3.959583E-05
565.309,-3.957134E-05
565.409,-3.956098E-05
565.509,-3.957229E-05
565.6089,-3.955157E-05
565.7089,-3.956192E-05
565.8089,-3.956757E-05
565.9089,-3.955251E-05
566.0089,-3.954215E-05
566.1088,-3.954215E-05
566.2088,-3.953367E-05
566.3088,-3.953461E-05
566.4088,-3.953744E-05
566.5087,-3.951484E-05
566.6087,-3.952048E-05
566.7087,-3.95252E-05
566.8087,-3.949883E-05
566.9086,-3.948376E-05
567.0086,-3.952896E-05
567.1086,-3.950636E-05
567.2086,-3.948564E-05
567.3085,-3.949883E-05
567.4085,-3.948282E-05
567.5085,-3.947246E-05
567.6085,-3.947811E-05
567.7084,-3.946398E-05
567.8084,-3.944515E-05
567.9084,-3.948376E-05
568.0084,-3.94395E-05
568.1083,-3.943761E-05
568.2083,-3.94395E-05
568.3083,-3.94395E-05
568.4083,-3.943008E-05
568.5082,-3.942726E-05
568.6082,-3.939995E-05
568.7082,-3.939995E-05
568.8082,-3.94395E-05
568.9081,-3.942349E-05
569.0081,-3.940465E-05
569.1081,-3.9399E-05
569.2081,-3.940842E-05
569.308,-3.938771E-05
569.408,-3.939524E-05
569.508,-3.935475E-05
569.608,-3.934062E-05
569.7079,-3.93943E-05
569.8079,-3.937264E-05
569.9079,-3.934156E-05
570.0079,-3.934062E-05
570.1078,-3.933214E-05
570.2078,-3.932178E-05
570.3078,-3.933591E-05
570.4078,-3.93086E-05
570.5078,-3.93199E-05
570.6077,-3.933026E-05
570.7077,-3.933308E-05
570.8077,-3.929164E-05
570.9077,-3.930671E-05
571.0076,-3.929918E-05
571.1076,-3.927846E-05
571.2076,-3.928129E-05
571.3076,-3.929164E-05
571.4075,-3.928035E-05
571.5075,-3.926622E-05
571.6075,-3.92521E-05
571.7075,-3.924833E-05
571.8074,-3.926622E-05
571.9074,-3.923985E-05
572.0074,-3.92116E-05
572.1074,-3.926245E-05
572.2073,-3.923703E-05
572.3073,-3.920407E-05
572.4073,-3.921725E-05
572.5073,-3.923703E-05
572.6072,-3.921442E-05
572.7072,-3.919653E-05
572.8072,-3.920501E-05
572.9072,-3.919276E-05
573.0071,-3.920029E-05
573.1071,-3.921348E-05
573.2071,-3.919088E-05
573.3071,-3.917299E-05
573.407,-3.918335E-05
573.507,-3.916922E-05
573.607,-3.918523E-05
573.707,-3.919841E-05
573.8069,-3.916169E-05
573.9069,-3.915415E-05
574.0069,-3.917016E-05
574.1069,-3.914379E-05
574.2068,-3.916451E-05
574.3068,-3.915981E-05
574.4068,-3.914191E-05
574.5068,-3.912025E-05
574.6068,-3.914191E-05
574.7067,-3.913626E-05
574.8067,-3.91259E-05
574.9067,-3.910142E-05
575.0067,-3.910518E-05
575.1066,-3.912496E-05
575.2066,-3.912308E-05
575.3066,-3.910989E-05
575.4066,-3.907787E-05
575.5065,-3.911837E-05
575.6065,-3.911083E-05
575.7065,-3.906469E-05
575.8065,-3.90807E-05
575.9064,-3.907505E-05
576.0064,-3.906752E-05
576.1064,-3.906281E-05
576.2064,-3.904962E-05
576.3063,-3.905339E-05
576.4063,-3.907411E-05
576.5063,-3.903267E-05
576.6063,-3.899783E-05
576.7062,-3.903079E-05
576.8062,-3.903079E-05
576.9062,-3.901478E-05
577.0062,-3.900253E-05
577.1061,-3.898935E-05
577.2061,-3.898935E-05
577.3061,-3.900253E-05
577.4061,-3.8995E-05
577.506,-3.896957E-05
577.606,-3.896769E-05
577.706,-3.896487E-05
577.806,-3.895922E-05
577.9059,-3.898276E-05
578.0059,-3.895922E-05
578.1059,-3.894792E-05
578.2059,-3.895922E-05
578.3058,-3.895639E-05
578.4058,-3.893944E-05
578.5058,-3.895922E-05
578.6058,-3.893567E-05
578.7057,-3.89319E-05
578.8057,-3.89272E-05
578.9057,-3.894038E-05
579.0057,-3.891213E-05
579.1057,-3.894415E-05
579.2056,-3.893756E-05
579.3056,-3.892437E-05
579.4056,-3.892155E-05
579.5056,-3.891213E-05
579.6055,-3.890083E-05
579.7055,-3.890837E-05
579.8055,-3.888199E-05
579.9055,-3.886599E-05
580.0054,-3.887823E-05
580.1054,-3.88641E-05
580.2054,-3.88528E-05
580.3054,-3.884809E-05
580.4053,-3.883114E-05
580.5053,-3.885468E-05
580.6053,-3.887823E-05
580.7053,-3.886504E-05
580.8052,-3.883114E-05
580.9052,-3.884998E-05
581.0052,-3.884338E-05
581.1052,-3.882267E-05
581.2051,-3.880383E-05
581.3051,-3.880006E-05
581.4051,-3.88123E-05
581.5051,-3.882172E-05
581.605,-3.8801E-05
581.705,-3.877181E-05
581.805,-3.878782E-05
581.905,-3.880477E-05
582.0049,-3.878405E-05
582.1049,-3.877652E-05
582.2049,-3.875957E-05
582.3049,-3.875674E-05
582.4048,-3.877276E-05
582.5048,-3.877558E-05
582.6048,-3.874544E-05
582.7048,-3.875015E-05
582.8047,-3.874544E-05
582.9047,-3.875769E-05
583.0047,-3.874262E-05
583.1047,-3.874638E-05
583.2047,-3.87219E-05
583.3046,-3.874827E-05
583.4046,-3.872567E-05
583.5046,-3.871342E-05
583.6046,-3.871248E-05
583.7045,-3.869459E-05
583.8045,-3.870495E-05
583.9045,-3.871813E-05
584.0045,-3.868141E-05
584.1044,-3.86654E-05
584.2044,-3.867858E-05
584.3044,-3.86654E-05
584.4044,-3.865315E-05
584.5043,-3.867858E-05
584.6043,-3.865315E-05
584.7043,-3.863244E-05
584.8043,-3.865504E-05
584.9042,-3.86541E-05
585.0042,-3.864656E-05
585.1042,-3.862302E-05
585.2042,-3.861172E-05
585.3041,-3.860418E-05
585.4041,-3.862208E-05
585.5041,-3.862019E-05
585.6041,-3.860136E-05
585.704,-3.859383E-05
585.804,-3.857311E-05
585.904,-3.85684E-05
586.004,-3.859571E-05
586.1039,-3.859383E-05
586.2039,-3.855898E-05
586.3039,-3.857028E-05
586.4039,-3.856652E-05
586.5038,-3.856934E-05
586.6038,-3.85797E-05
586.7038,-3.856087E-05
586.8038,-3.853449E-05
586.9037,-3.855427E-05
587.0037,-3.854014E-05
587.1037,-3.852131E-05
587.2037,-3.852319E-05
587.3036,-3.851284E-05
587.4036,-3.850248E-05
587.5036,-3.854014E-05
587.6036,-3.853073E-05
587.7036,-3.850342E-05
587.8035,-3.850907E-05
587.9035,-3.848741E-05
588.0035,-3.846575E-05
588.1035,-3.848835E-05
588.2034,-3.850624E-05
588.3034,-3.846292E-05
588.4034,-3.846951E-05
588.5034,-3.845822E-05
588.6033,-3.844691E-05
588.7033,-3.847893E-05
588.8033,-3.84601E-05
588.9033,-3.843561E-05
589.0032,-3.84488E-05
589.1032,-3.844032E-05
589.2032,-3.844503E-05
589.3032,-3.842903E-05
589.4031,-3.843467E-05
589.5031,-3.842808E-05
589.6031,-3.843091E-05
589.7031,-3.842808E-05
589.803,-3.838853E-05
589.903,-3.840642E-05
590.003,-3.838287E-05
590.103,-3.83857E-05
590.2029,-3.840077E-05
590.3029,-3.838476E-05
590.4029,-3.837722E-05
590.5029,-3.838476E-05
590.6028,-3.837534E-05
590.7028,-3.835368E-05
590.8028,-3.836875E-05
590.9028,-3.836122E-05
591.0027,-3.833108E-05
591.1027,-3.834333E-05
591.2027,-3.833485E-05
591.3027,-3.832355E-05
591.4026,-3.834991E-05
591.5026,-3.834144E-05
591.6026,-3.830095E-05
591.7026,-3.832449E-05
591.8026,-3.831507E-05
591.9025,-3.831318E-05
592.0025,-3.830377E-05
592.1025,-3.82953E-05
592.2025,-3.828305E-05
592.3024,-3.827646E-05
592.4024,-3.82953E-05
592.5024,-3.827081E-05
592.6024,-3.829059E-05
592.7023,-3.827081E-05
592.8023,-3.825857E-05
592.9023,-3.827081E-05
593.0023,-3.825386E-05
593.1022,-3.823879E-05
593.2022,-3.824539E-05
593.3022,-3.823408E-05
593.4022,-3.821902E-05
593.5021,-3.824821E-05
593.6021,-3.825386E-05
593.7021,-3.821619E-05
593.8021,-3.822184E-05
593.902,-3.822372E-05
594.002,-3.820395E-05
594.102,-3.8203E-05
594.202,-3.820112E-05
594.3019,-3.819265E-05
594.4019,-3.819076E-05
594.5019,-3.821054E-05
594.6019,-3.816063E-05
594.7018,-3.817664E-05
594.8018,-3.818135E-05
594.9018,-3.816816E-05
595.0018,-3.817852E-05
595.1017,-3.817475E-05
595.2017,-3.815215E-05
595.3017,-3.814745E-05
595.4017,-3.814933E-05
595.5016,-3.812767E-05
595.6016,-3.814085E-05
595.7016,-3.811542E-05
595.8016,-3.811166E-05
595.9016,-3.812672E-05
596.0015,-3.814273E-05
596.1015,-3.810036E-05
596.2015,-3.811072E-05
596.3015,-3.811825E-05
596.4014,-3.807681E-05
596.5014,-3.810884E-05
596.6014,-3.809847E-05
596.7014,-3.808717E-05
596.8013,-3.808058E-05
596.9013,-3.806458E-05
597.0013,-3.806646E-05
597.1013,-3.805892E-05
597.2012,-3.807776E-05
597.3012,-3.804762E-05
597.4012,-3.80561E-05
597.5012,-3.807681E-05
597.6011,-3.804762E-05
597.7011,-3.805327E-05
597.8011,-3.803443E-05
597.9011,-3.804291E-05
598.001,-3.803915E-05
598.101,-3.803161E-05
598.201,-3.80043E-05
598.301,-3.803067E-05
598.4009,-3.804103E-05
598.5009,-3.802502E-05
598.6009,-3.799771E-05
598.7009,-3.801277E-05
598.8008,-3.801183E-05
598.9008,-3.800995E-05
599.0008,-3.798923E-05
599.1008,-3.79817E-05
599.2007,-3.800901E-05
599.3007,-3.79817E-05
599.4007,-3.793367E-05
599.5007,-3.795816E-05
599.6006,-3.798546E-05
599.7006,-3.795627E-05
599.8006,-3.794026E-05
599.9006,-3.793179E-05
600.0005,-3.794779E-05
