EXPID. 1099
[电化学]: i-t : @ 0(V) X 600(sec)
起始电位 (V),0
静置时间 (秒),0
运行时间 (秒),600
记录间隔,0.1
电解液 信息:
HNO3,0.4
0.1,-0.01005814
0.2,-0.01005814
0.3,-0.01005814
0.4,-0.01005814
0.5,-0.01005814
0.6,-0.01005814
0.7,-0.01005814
0.8000001,-0.01005814
0.9000001,-0.01005814
1,-0.01005814
1.1,-0.01005814
1.2,-0.01005814
1.3,-0.01005814
1.4,-0.01005814
1.5,-0.01005814
1.6,-0.01005814
1.7,-0.01005814
1.8,-0.01005814
1.9,-0.01005814
2,-0.01005814
2.1,-0.01005814
2.2,-0.01005814
2.3,-0.01005814
2.4,-0.01005814
2.5,-0.01005814
2.6,-0.01005814
2.7,-0.01005814
2.799999,-0.01005814
2.899999,-0.01005814
2.999999,-0.01005814
3.099999,-0.01005814
3.199999,-0.01005814
3.299999,-0.01005814
3.399999,-0.01005814
3.499999,-0.01005814
3.599999,-0.01005814
3.699999,-0.01005814
3.799999,-0.01005814
3.899998,-0.01005814
3.999998,-0.01005814
4.099998,-0.01005814
4.199998,-0.01005814
4.299998,-0.01005814
4.399998,-0.01005814
4.499998,-0.01005814
4.599998,-0.01005814
4.699998,-0.01005814
4.799998,-0.01005814
4.899998,-0.01005814
4.999998,-0.01005814
5.099998,-0.01005814
5.199997,-0.01005814
5.299997,-0.01005814
5.399997,-0.01005814
5.499997,-0.01005814
5.599997,-0.01005814
5.699997,-0.01005814
5.799997,-0.01005814
5.899997,-0.01005814
5.999997,-0.01005814
6.099997,-0.01005814
6.199996,-0.01005814
6.299996,-0.01005814
6.399996,-0.01005814
6.499996,-0.01005814
6.599996,-0.01005814
6.699996,-0.01005814
6.799996,-0.01005814
6.899996,-0.01005814
6.999996,-0.01005814
7.099996,-0.01005814
7.199996,-0.01005814
7.299995,-0.01005814
7.399995,-0.01005814
7.499995,-0.01005814
7.599995,-0.01005814
7.699995,-0.01005814
7.799995,-0.01005814
7.899995,-0.01005814
7.999995,-0.01005814
8.099995,-0.01005814
8.199995,-0.01005814
8.299995,-0.01005814
8.399996,-0.01005814
8.499996,-0.01005814
8.599997,-0.01005814
8.699997,-0.01005814
8.799997,-0.01005814
8.899998,-0.01005814
8.999998,-0.01005814
9.099998,-0.01005814
9.199999,-0.01005814
9.299999,-0.01005814
9.4,-0.01005814
9.5,-0.01005814
9.6,-0.01005814
9.700001,-0.01005814
9.800001,-0.01005814
9.900002,-0.01005814
10,-0.01005814
10.1,-0.01005814
10.2,-0.01005814
10.3,-0.01005814
10.4,-0.01005814
10.5,-0.01005814
10.6,-0.01005814
10.7,-0.01005814
10.8,-0.01005814
10.90001,-0.01005814
11.00001,-0.01005814
11.10001,-0.01005814
11.20001,-0.01005814
11.30001,-0.01005814
11.40001,-0.01005814
11.50001,-0.01005814
11.60001,-0.01005814
11.70001,-0.01005814
11.80001,-0.01005814
11.90001,-0.01005814
12.00001,-0.01005814
12.10001,-0.01005814
12.20001,-0.01005814
12.30001,-0.01005814
12.40001,-0.01005814
12.50001,-0.01005814
12.60001,-0.01005814
12.70001,-0.01005814
12.80001,-0.01005814
12.90001,-0.01005814
13.00001,-0.01005814
13.10001,-0.01005814
13.20001,-0.01005814
13.30001,-0.01005814
13.40001,-0.01005814
13.50002,-0.01005814
13.60002,-0.01005814
13.70002,-0.01005814
13.80002,-0.01005814
13.90002,-0.01005814
14.00002,-0.01005814
14.10002,-0.01005814
14.20002,-0.01005814
14.30002,-0.01005814
14.40002,-0.01005814
14.50002,-0.01005814
14.60002,-0.01005814
14.70002,-0.01005814
14.80002,-0.01005814
14.90002,-0.01005814
15.00002,-0.01005814
15.10002,-0.01005814
15.20002,-0.01005814
15.30002,-0.01005814
15.40002,-0.01005814
15.50002,-0.01005814
15.60002,-0.01005814
15.70002,-0.01005814
15.80002,-0.01005814
15.90002,-0.01005814
16.00002,-0.01005814
16.10003,-0.01005814
16.20003,-0.01005814
16.30003,-0.01005814
16.40003,-0.01005814
16.50003,-0.01005814
16.60003,-0.01005814
16.70003,-0.01005814
16.80003,-0.01005814
16.90003,-0.01005814
17.00003,-0.01005814
17.10003,-0.01005812
17.20003,-0.01003591
17.30003,-0.009981743
17.40003,-0.009926573
17.50003,-0.009876152
17.60003,-0.009826887
17.70003,-0.009771664
17.80003,-0.009724109
17.90003,-0.009675121
18.00003,-0.009622317
18.10003,-0.009577543
18.20003,-0.009530104
18.30003,-0.009477362
18.40003,-0.009432619
18.50003,-0.009386151
18.60003,-0.009341939
18.70004,-0.009294275
18.80004,-0.009244949
18.90004,-0.009205972
19.00004,-0.009158609
19.10004,-0.009110518
19.20004,-0.009070352
19.30004,-0.009027785
19.40004,-0.008980153
19.50004,-0.008938219
19.60004,-0.008898801
19.70004,-0.008850466
19.80004,-0.008811726
19.90004,-0.008768
20.00004,-0.008723468
20.10004,-0.008680123
20.20004,-0.008645414
20.30004,-0.008600377
20.40004,-0.008558248
20.50004,-0.008521148
20.60004,-0.008478784
20.70004,-0.008436166
20.80004,-0.008400846
20.90004,-0.008357996
21.00004,-0.008318023
21.10004,-0.00828441
21.20004,-0.008243883
21.30005,-0.008203097
21.40005,-0.008165947
21.50005,-0.008126115
21.60005,-0.008089243
21.70005,-0.00805411
21.80005,-0.008013085
21.90005,-0.007978216
22.00005,-0.007941779
22.10005,-0.007902852
22.20005,-0.007868243
22.30005,-0.007830808
22.40005,-0.007792764
22.50005,-0.007761263
22.60005,-0.007725447
22.70005,-0.007686245
22.80005,-0.007654452
22.90005,-0.007616383
23.00005,-0.007584952
23.10005,-0.007551589
23.20005,-0.007512874
23.30005,-0.007479112
23.40005,-0.007446355
23.50005,-0.007410892
23.60005,-0.007377272
23.70005,-0.007345418
23.80005,-0.007311177
23.90005,-0.007277138
24.00006,-0.007242791
24.10006,-0.007214665
24.20006,-0.007176039
24.30006,-0.007146909
24.40006,-0.007115493
24.50006,-0.007079392
24.60006,-0.007051493
24.70006,-0.007018731
24.80006,-0.006984052
24.90006,-0.006954839
25.00006,-0.0069218
25.10006,-0.006889432
25.20006,-0.006859029
25.30006,-0.006827854
25.40006,-0.006797907
25.50006,-0.00676811
25.60006,-0.006732327
25.70006,-0.006706427
25.80006,-0.00667328
25.90006,-0.006641985
26.00006,-0.00661372
26.10006,-0.006584131
26.20006,-0.006549081
26.30006,-0.006521794
26.40006,-0.006492832
26.50006,-0.006459749
26.60007,-0.006430131
26.70007,-0.006402806
26.80007,-0.006370858
26.90007,-0.006341254
27.00007,-0.006313663
27.10007,-0.006281894
27.20007,-0.006253889
27.30007,-0.006224436
27.40007,-0.006195275
27.50007,-0.006164742
27.60007,-0.006137095
27.70007,-0.006105066
27.80007,-0.006077131
27.90007,-0.006048102
28.00007,-0.006018311
28.10007,-0.005990157
28.20007,-0.005959962
28.30007,-0.005929376
28.40007,-0.005901627
28.50007,-0.005873034
28.60007,-0.005841606
28.70007,-0.005813691
28.80007,-0.005785236
28.90007,-0.005752504
29.00007,-0.005724195
29.10007,-0.005696173
29.20008,-0.005664004
29.30008,-0.005636949
29.40008,-0.005608049
29.50008,-0.005575268
29.60008,-0.005546965
29.70008,-0.005518973
29.80008,-0.005486614
29.90008,-0.005459056
30.00008,-0.005429766
30.10008,-0.005399955
30.20008,-0.005372697
30.30008,-0.005343882
30.40008,-0.005312102
30.50008,-0.00528534
30.60008,-0.005257023
30.70008,-0.005227563
30.80008,-0.005200537
30.90008,-0.005172152
31.00008,-0.005143683
31.10008,-0.005116936
31.20008,-0.005090881
31.30008,-0.005061516
31.40008,-0.005035631
31.50008,-0.005009029
31.60008,-0.004981076
31.70008,-0.004955663
31.80009,-0.004929375
31.90009,-0.004902591
32.00008,-0.00487837
32.10008,-0.004852611
32.20008,-0.00482694
32.30008,-0.00480299
32.40008,-0.004777237
32.50008,-0.004751619
32.60007,-0.004728206
32.70007,-0.004703538
32.80007,-0.004679035
32.90007,-0.004656137
33.00007,-0.004632247
33.10007,-0.004607685
33.20007,-0.0045855
33.30006,-0.004562581
33.40006,-0.004539312
33.50006,-0.004517561
33.60006,-0.00449516
33.70006,-0.004472623
33.80006,-0.004451703
33.90005,-0.004429576
34.00005,-0.004407346
34.10005,-0.004387001
34.20005,-0.004365657
34.30005,-0.004344283
34.40005,-0.00432487
34.50005,-0.004304018
34.60004,-0.004283566
34.70004,-0.004264262
34.80004,-0.004243505
34.90004,-0.004223634
35.00004,-0.004203873
35.10004,-0.00418442
35.20004,-0.004164989
35.30003,-0.004146193
35.40003,-0.004127068
35.50003,-0.004107837
35.60003,-0.004089126
35.70003,-0.004070052
35.80003,-0.004052781
35.90002,-0.004034408
36.00002,-0.004015529
36.10002,-0.003997976
36.20002,-0.003980546
36.30002,-0.003961466
36.40002,-0.003944438
36.50002,-0.003926867
36.60001,-0.003908183
36.70001,-0.003891709
36.80001,-0.003874629
36.90001,-0.003856671
37.00001,-0.003840517
37.10001,-0.003823783
37.2,-0.003806412
37.3,-0.003790278
37.4,-0.003773643
37.5,-0.003756471
37.6,-0.00374084
37.7,-0.003725008
37.8,-0.003708228
37.89999,-0.003692577
37.99999,-0.003677037
38.09999,-0.00366064
38.19999,-0.003644941
38.29999,-0.003630429
38.39999,-0.003614168
38.49998,-0.003598494
38.59998,-0.003584213
38.69998,-0.00356842
38.79998,-0.00355336
38.89998,-0.003539008
38.99998,-0.003523473
39.09998,-0.003508494
39.19997,-0.003494445
39.29997,-0.003479229
39.39997,-0.003464678
39.49997,-0.003450793
39.59997,-0.003435708
39.69997,-0.00342187
39.79996,-0.003407736
39.89996,-0.003393174
39.99996,-0.003379284
40.09996,-0.003365984
40.19996,-0.003351284
40.29996,-0.003337349
40.39996,-0.00332509
40.49995,-0.00331033
40.59995,-0.003297135
40.69995,-0.003284107
40.79995,-0.003270369
40.89995,-0.003257466
40.99995,-0.003244454
41.09995,-0.003230594
41.19994,-0.003217604
41.29994,-0.003205216
41.39994,-0.003191748
41.49994,-0.003179067
41.59994,-0.003166368
41.69994,-0.003153129
41.79993,-0.003140529
41.89993,-0.003128406
41.99993,-0.003115826
42.09993,-0.003103425
42.19993,-0.003091126
42.29993,-0.003078715
42.39993,-0.003066302
42.49992,-0.003054561
42.59992,-0.003042012
42.69992,-0.003030172
42.79992,-0.00301816
42.89992,-0.003006127
42.99992,-0.002994512
43.09991,-0.002982436
43.19991,-0.002970726
43.29991,-0.002959136
43.39991,-0.002947707
43.49991,-0.002936112
43.59991,-0.002924772
43.69991,-0.002913257
43.7999,-0.002901952
43.8999,-0.002890908
43.9999,-0.002879436
44.0999,-0.002868479
44.1999,-0.002857462
44.2999,-0.002846227
44.39989,-0.002835664
44.49989,-0.002824748
44.59989,-0.00281369
44.69989,-0.002802971
44.79989,-0.002792577
44.89989,-0.002781651
44.99989,-0.002771153
45.09988,-0.00276058
45.19988,-0.002749744
45.29988,-0.002739446
45.39988,-0.002729343
45.49988,-0.002718733
45.59988,-0.002708698
45.69987,-0.002698316
45.79987,-0.002687926
45.89987,-0.002677972
45.99987,-0.002667515
46.09987,-0.002657814
46.19987,-0.002648066
46.29987,-0.002637848
46.39986,-0.002627649
46.49986,-0.002618365
46.59986,-0.002608079
46.69986,-0.002598208
46.79986,-0.002588605
46.89986,-0.002579059
46.99986,-0.002569019
47.09985,-0.002559639
47.19985,-0.002550193
47.29985,-0.002540395
47.39985,-0.002531222
47.49985,-0.002521891
47.59985,-0.00251231
47.69984,-0.002502966
47.79984,-0.002494162
47.89984,-0.002484705
47.99984,-0.002475612
48.09984,-0.00246662
48.19984,-0.002457639
48.29984,-0.002448681
48.39983,-0.002439439
48.49983,-0.002430511
48.59983,-0.002421724
48.69983,-0.002413129
48.79983,-0.002404093
48.89983,-0.002395238
48.99982,-0.002386556
49.09982,-0.002377692
49.19982,-0.002369371
49.29982,-0.0023607
49.39982,-0.0023518
49.49982,-0.00234353
49.59982,-0.002335048
49.69981,-0.002326539
49.79981,-0.002318277
49.89981,-0.002310061
49.99981,-0.002301583
50.09981,-0.002293373
50.19981,-0.00228513
50.2998,-0.002276713
50.3998,-0.002268843
50.4998,-0.002260679
50.5998,-0.002252515
50.6998,-0.002244702
50.7998,-0.002236647
50.8998,-0.002228495
50.99979,-0.002220823
51.09979,-0.002212971
51.19979,-0.002204849
51.29979,-0.0021973
51.39979,-0.002189508
51.49979,-0.002181486
51.59978,-0.002174165
51.69978,-0.002166417
51.79978,-0.00215878
51.89978,-0.002151471
51.99978,-0.002143871
52.09978,-0.002136103
52.19978,-0.002128703
52.29977,-0.00212147
52.39977,-0.002113914
52.49977,-0.002106827
52.59977,-0.002099252
52.69977,-0.002092302
52.79977,-0.002084785
52.89977,-0.002077489
52.99976,-0.002070275
53.09976,-0.002063162
53.19976,-0.002055823
53.29976,-0.002048783
53.39976,-0.00204162
53.49976,-0.002034492
53.59975,-0.002027659
53.69975,-0.002020764
53.79975,-0.002013543
53.89975,-0.002006873
53.99975,-0.002000222
54.09975,-0.001993118
54.19975,-0.001986686
54.29974,-0.001979924
54.39974,-0.001972826
54.49974,-0.001966294
54.59974,-0.001959573
54.69974,-0.001952909
54.79974,-0.001946359
54.89973,-0.001939835
54.99973,-0.001933018
55.09973,-0.001926648
55.19973,-0.001920235
55.29973,-0.001913557
55.39973,-0.001907216
55.49973,-0.00190102
55.59972,-0.001894349
55.69972,-0.001888016
55.79972,-0.001881876
55.89972,-0.001875308
55.99972,-0.001869048
56.09972,-0.001863279
56.19971,-0.001856677
56.29971,-0.001850549
56.39971,-0.001844816
56.49971,-0.001838624
56.59971,-0.001832245
56.69971,-0.001826513
56.79971,-0.001820429
56.8997,-0.0018142
56.9997,-0.001808388
57.0997,-0.001802395
57.1997,-0.001796338
57.2997,-0.001790627
57.3997,-0.001784631
57.49969,-0.001778843
57.59969,-0.001773128
57.69969,-0.001767229
57.79969,-0.001761644
57.89969,-0.00175595
57.99969,-0.001750014
58.09969,-0.001744555
58.19968,-0.001739035
58.29968,-0.001733028
58.39968,-0.001727625
58.49968,-0.001722299
58.59968,-0.001716544
58.69968,-0.001710939
58.79967,-0.001705672
58.89967,-0.00170017
58.99967,-0.00169494
59.09967,-0.001689498
59.19967,-0.001684005
59.29967,-0.001678706
59.39967,-0.001673425
59.49966,-0.001667915
59.59966,-0.001662786
59.69966,-0.001657404
59.79966,-0.001652077
59.89966,-0.001646903
59.99966,-0.001641829
60.09966,-0.001636449
60.19965,-0.001631402
60.29965,-0.001626418
60.39965,-0.001621194
60.49965,-0.001616189
60.59965,-0.001611184
60.69965,-0.001605972
60.79964,-0.001601029
60.89964,-0.001596186
60.99964,-0.001591157
61.09964,-0.00158638
61.19964,-0.001581434
61.29964,-0.001576321
61.39964,-0.001571505
61.49963,-0.00156669
61.59963,-0.001561754
61.69963,-0.001556913
61.79963,-0.00155228
61.89963,-0.001547256
61.99963,-0.001542607
62.09962,-0.001537906
62.19962,-0.001533292
62.29962,-0.001528813
62.39962,-0.001523894
62.49962,-0.001519141
62.59962,-0.001514615
62.69962,-0.00151005
62.79961,-0.001505203
62.89961,-0.001500832
62.99961,-0.001496214
63.09961,-0.001491435
63.19961,-0.001487032
63.29961,-0.001482705
63.3996,-0.001477973
63.4996,-0.001473649
63.5996,-0.001469308
63.6996,-0.001464694
63.7996,-0.001460416
63.8996,-0.001456047
63.9996,-0.001451552
64.09959,-0.001447257
64.19959,-0.001443042
64.29959,-0.001438663
64.39959,-0.001434479
64.49959,-0.001430385
64.59959,-0.001425865
64.69958,-0.001421634
64.79958,-0.001417563
64.89958,-0.001413144
64.99958,-0.001409185
65.09958,-0.001405065
65.19958,-0.001400829
65.29958,-0.001396832
65.39957,-0.00139277
65.49957,-0.001388623
65.59957,-0.001384624
65.69957,-0.001380727
65.79957,-0.001376596
65.89957,-0.001372647
65.99957,-0.001368866
66.09956,-0.001364688
66.19956,-0.001360759
66.29956,-0.001356802
66.39956,-0.001353017
66.49956,-0.001349127
66.59956,-0.001345215
66.69955,-0.001341038
66.79955,-0.001337341
66.89955,-0.001333495
66.99955,-0.001329669
67.09955,-0.001325963
67.19955,-0.001322225
67.29955,-0.001318274
67.39954,-0.001314581
67.49954,-0.001310996
67.59954,-0.001307121
67.69954,-0.001303478
67.79954,-0.001299899
67.89954,-0.001296042
67.99953,-0.001292474
68.09953,-0.001288984
68.19953,-0.001285337
68.29953,-0.001281707
68.39953,-0.001278163
68.49953,-0.001274637
68.59953,-0.00127104
68.69952,-0.001267442
68.79952,-0.001263736
68.89952,-0.001260282
68.99952,-0.001256694
69.09952,-0.001253169
69.19952,-0.001249728
69.29951,-0.001246346
69.39951,-0.001242779
69.49951,-0.001239357
69.59951,-0.001236078
69.69951,-0.00123252
69.79951,-0.001229204
69.89951,-0.001225915
69.9995,-0.001222565
70.0995,-0.00121925
70.1995,-0.001215893
70.2995,-0.001212449
70.3995,-0.001209321
70.4995,-0.001206012
70.59949,-0.001202594
70.69949,-0.001199557
70.79949,-0.001196207
70.89949,-0.001192974
70.99949,-0.00118992
71.09949,-0.001186385
71.19949,-0.001183329
71.29948,-0.001180293
71.39948,-0.001177018
71.49948,-0.001173776
71.59948,-0.001170873
71.69948,-0.001167617
71.79948,-0.00116461
71.89948,-0.001161603
71.99947,-0.001158539
72.09947,-0.001155038
72.19947,-0.001152411
72.29947,-0.001149303
72.39947,-0.001146016
72.49947,-0.001143413
72.59946,-0.001140229
72.69946,-0.001137116
72.79946,-0.001134272
72.89946,-0.001131331
72.99946,-0.001128119
73.09946,-0.001125247
73.19946,-0.001122283
73.29945,-0.001119306
73.39945,-0.001116449
73.49945,-0.001113437
73.59945,-0.00111056
73.69945,-0.001107662
73.79945,-0.001104816
73.89944,-0.001101904
73.99944,-0.0010991
74.09944,-0.001096137
74.19944,-0.001093307
74.29944,-0.001090593
74.39944,-0.001087788
74.49944,-0.00108492
74.59943,-0.00108229
74.69943,-0.0010794
74.79943,-0.001076639
74.89943,-0.001074028
74.99943,-0.001071181
75.09943,-0.001068567
75.19942,-0.001065911
75.29942,-0.001063244
75.39942,-0.001060529
75.49942,-0.001057798
75.59942,-0.001055178
75.69942,-0.001052614
75.79942,-0.001049882
75.89941,-0.001047205
75.99941,-0.001044721
76.09941,-0.001042136
76.19941,-0.001039602
76.29941,-0.001037082
76.39941,-0.001034426
76.4994,-0.001031855
76.5994,-0.001029237
76.6994,-0.001026638
76.7994,-0.001024189
76.8994,-0.001021664
76.9994,-0.001019023
77.0994,-0.001016654
77.19939,-0.001014229
77.29939,-0.001011658
77.39939,-0.0010092
77.49939,-0.001006876
77.59939,-0.001004281
77.69939,-0.001001864
77.79939,-0.0009995892
77.89938,-0.0009970211
77.99938,-0.0009947488
78.09938,-0.0009922467
78.19938,-0.0009898085
78.29938,-0.000987487
78.39938,-0.0009851526
78.49937,-0.0009827096
78.59937,-0.0009805154
78.69937,-0.0009781413
78.79937,-0.000975722
78.89937,-0.000973476
78.99937,-0.0009712347
79.09937,-0.0009686468
79.19936,-0.0009665684
79.29936,-0.0009643026
79.39936,-0.0009619049
79.49936,-0.0009597031
79.59936,-0.0009574034
79.69936,-0.0009551424
79.79935,-0.0009530131
79.89935,-0.0009506371
79.99935,-0.0009483431
80.09935,-0.0009462147
80.19935,-0.0009439876
80.29935,-0.0009417387
80.39935,-0.000939551
80.49934,-0.0009373625
80.59934,-0.0009352361
80.69934,-0.0009331124
80.79934,-0.0009308673
80.89934,-0.000928771
80.99934,-0.0009266089
81.09933,-0.0009245154
81.19933,-0.0009223371
81.29933,-0.0009202588
81.39933,-0.0009182529
81.49933,-0.0009160134
81.59933,-0.0009138757
81.69933,-0.0009118811
81.79932,-0.0009098206
81.89932,-0.0009077384
81.99932,-0.0009056741
82.09932,-0.0009035637
82.19932,-0.0009015927
82.29932,-0.0008995962
82.39931,-0.0008974838
82.49931,-0.0008955054
82.59931,-0.0008934938
82.69931,-0.0008915171
82.79931,-0.0008895215
82.89931,-0.0008874987
82.99931,-0.0008856257
83.0993,-0.0008835811
83.1993,-0.0008817532
83.2993,-0.0008797521
83.3993,-0.0008776586
83.4993,-0.0008757497
83.5993,-0.0008738172
83.6993,-0.0008717841
83.79929,-0.000869878
83.89929,-0.0008679145
83.99929,-0.0008659859
84.09929,-0.0008640101
84.19929,-0.000862169
84.29929,-0.0008602347
84.39928,-0.0008583305
84.49928,-0.0008566401
84.59928,-0.0008546446
84.69928,-0.000852957
84.79928,-0.0008510725
84.89928,-0.0008490827
84.99928,-0.0008472991
85.09927,-0.0008455634
85.19927,-0.0008436395
85.29927,-0.0008419669
85.39927,-0.0008403378
85.49927,-0.0008383055
85.59927,-0.0008364785
85.69926,-0.0008347015
85.79926,-0.0008328981
85.89926,-0.0008311389
85.99926,-0.000829457
86.09926,-0.0008275189
86.19926,-0.0008258003
86.29926,-0.0008240986
86.39925,-0.0008223253
86.49925,-0.0008206302
86.59925,-0.0008188606
86.69925,-0.0008170666
86.79925,-0.0008153979
86.89925,-0.000813668
86.99924,-0.0008118692
87.09924,-0.0008103201
87.19924,-0.0008085713
87.29924,-0.0008067678
87.39924,-0.0008051886
87.49924,-0.000803486
87.59924,-0.000801739
87.69923,-0.0008001626
87.79923,-0.0007984543
87.89923,-0.0007966725
87.99923,-0.0007951083
88.09923,-0.000793448
88.19923,-0.0007916936
88.29922,-0.0007901632
88.39922,-0.0007884643
88.49922,-0.000786757
88.59922,-0.000785239
88.69922,-0.000783672
88.79922,-0.0007819288
88.89922,-0.0007804295
88.99921,-0.000778822
89.09921,-0.0007772032
89.19921,-0.0007756568
89.29921,-0.0007741576
89.39921,-0.0007724719
89.49921,-0.0007709642
89.59921,-0.0007694461
89.6992,-0.0007677633
89.7992,-0.0007662781
89.8992,-0.0007648081
89.9992,-0.0007632194
90.0992,-0.0007616617
90.1992,-0.0007602642
90.29919,-0.0007586511
90.39919,-0.000757165
90.49919,-0.000755743
90.59919,-0.0007542494
90.69919,-0.0007527332
90.79919,-0.000751395
90.89919,-0.0007498054
90.99918,-0.0007482769
91.09918,-0.000746838
91.19918,-0.0007453237
91.29918,-0.0007438819
91.39918,-0.0007425154
91.49918,-0.0007409644
91.59917,-0.0007395715
91.69917,-0.0007380978
91.79917,-0.000736656
91.89917,-0.0007352452
91.99917,-0.0007338119
92.09917,-0.0007324945
92.19917,-0.0007310885
92.29916,-0.0007297013
92.39916,-0.0007281286
92.49916,-0.0007268026
92.59916,-0.0007254287
92.69916,-0.0007239821
92.79916,-0.0007226251
92.89915,-0.0007212238
92.99915,-0.0007197528
93.09915,-0.0007184005
93.19915,-0.0007170783
93.29915,-0.0007155499
93.39915,-0.0007142004
93.49915,-0.0007130401
93.59914,-0.0007115126
93.69914,-0.0007102141
93.79914,-0.0007088985
93.89914,-0.0007075386
93.99914,-0.000706303
94.09914,-0.0007048838
94.19913,-0.0007035551
94.29913,-0.0007022752
94.39913,-0.0007009945
94.49913,-0.0006996224
94.59913,-0.0006983379
94.69913,-0.0006970505
94.79913,-0.0006956897
94.89912,-0.0006944693
94.99912,-0.0006932007
95.09912,-0.0006918352
95.19912,-0.0006905742
95.29912,-0.0006892832
95.39912,-0.0006880099
95.49911,-0.0006867931
95.59911,-0.0006855247
95.69911,-0.0006841638
95.79911,-0.0006830083
95.89911,-0.0006817605
95.99911,-0.0006804826
96.09911,-0.000679232
96.1991,-0.0006780492
96.2991,-0.0006767656
96.3991,-0.0006756337
96.4991,-0.0006743322
96.5991,-0.000673041
96.6991,-0.0006718949
96.7991,-0.0006706839
96.89909,-0.0006696197
96.99909,-0.000668469
97.09909,-0.00066703
97.19909,-0.0006658538
97.29909,-0.0006647435
97.39909,-0.0006635201
97.49908,-0.0006622498
97.59908,-0.0006611668
97.69908,-0.000659903
97.79908,-0.0006586317
97.89908,-0.0006576061
97.99908,-0.0006564732
98.09908,-0.0006551124
98.19907,-0.000654052
98.29907,-0.0006529596
98.39907,-0.000651661
98.49907,-0.000650627
98.59907,-0.0006494469
98.69907,-0.0006482679
98.79906,-0.0006470747
98.89906,-0.0006460737
98.99906,-0.0006448277
99.09906,-0.0006437947
99.19906,-0.0006426071
99.29906,-0.0006413791
99.39906,-0.0006403065
99.49905,-0.0006392894
99.59905,-0.0006379879
99.69905,-0.0006369191
99.79905,-0.0006358823
99.89905,-0.0006347201
99.99905,-0.0006335646
100.099,-0.0006326436
100.199,-0.0006314081
100.299,-0.0006302893
100.399,-0.000629455
100.499,-0.0006282175
100.599,-0.0006271261
100.699,-0.0006260496
100.799,-0.0006249949
100.899,-0.0006239599
100.999,-0.0006228007
101.099,-0.0006218777
101.199,-0.0006207788
101.299,-0.0006197513
101.399,-0.0006186231
101.499,-0.0006176682
101.599,-0.0006166417
101.699,-0.0006155427
101.799,-0.000614503
101.899,-0.0006134624
101.999,-0.0006124745
102.099,-0.0006114236
102.199,-0.0006103971
102.299,-0.0006093772
102.399,-0.0006083422
102.499,-0.000607328
102.599,-0.0006063175
102.699,-0.0006053674
102.799,-0.0006043304
102.899,-0.0006032776
102.999,-0.0006023198
103.099,-0.0006013226
103.199,-0.0006002857
103.299,-0.0005993092
103.399,-0.0005983693
103.499,-0.0005973569
103.599,-0.0005964896
103.699,-0.0005955695
103.799,-0.0005944931
103.899,-0.00059346
103.999,-0.0005925315
104.099,-0.0005916133
104.199,-0.0005906622
104.299,-0.0005896658
104.399,-0.0005887232
104.499,-0.0005877099
104.599,-0.0005867936
104.699,-0.0005858923
104.799,-0.0005849167
104.899,-0.0005839664
104.999,-0.0005829466
105.099,-0.0005821961
105.199,-0.0005811535
105.299,-0.0005801779
105.399,-0.0005793351
105.499,-0.0005783509
105.599,-0.0005773809
105.699,-0.0005765701
105.799,-0.0005756039
105.899,-0.0005746387
105.999,-0.0005737459
106.099,-0.0005728644
106.199,-0.0005718963
106.299,-0.0005710384
106.3989,-0.0005701513
106.4989,-0.0005692049
106.5989,-0.0005682781
106.6989,-0.0005673902
106.7989,-0.0005665444
106.8989,-0.0005656809
106.9989,-0.0005647175
107.0989,-0.0005638982
107.1989,-0.0005629244
107.2989,-0.0005620571
107.3989,-0.0005611258
107.4989,-0.0005602536
107.5989,-0.0005593233
107.6989,-0.0005584361
107.7989,-0.0005576338
107.8989,-0.0005567175
107.9989,-0.0005558436
108.0989,-0.0005549885
108.1989,-0.00055409
108.2989,-0.0005532632
108.3989,-0.0005524326
108.4989,-0.00055157
108.5989,-0.0005506838
108.6989,-0.0005499219
108.7989,-0.0005489934
108.8989,-0.0005482287
108.9989,-0.000547351
109.0989,-0.0005465279
109.1989,-0.000545702
109.2989,-0.0005448771
109.3989,-0.0005439391
109.4989,-0.0005431584
109.5989,-0.0005423683
109.6989,-0.0005415
109.7989,-0.0005406779
109.8989,-0.0005398661
109.9989,-0.0005390506
110.0989,-0.0005382162
110.1989,-0.0005373752
110.2989,-0.0005366049
110.3989,-0.0005358525
110.4989,-0.0005349446
110.5989,-0.0005342158
110.6989,-0.0005334878
110.7989,-0.0005325659
110.8989,-0.0005317305
110.9989,-0.0005310384
111.0989,-0.0005301588
111.1989,-0.0005293357
111.2989,-0.000528669
111.3989,-0.0005278412
111.4989,-0.0005270218
111.5989,-0.0005262562
111.6989,-0.0005255094
111.7989,-0.000524692
111.8989,-0.0005239433
111.9989,-0.0005231475
112.0989,-0.0005223
112.1989,-0.0005216285
112.2989,-0.0005208054
112.3989,-0.0005200445
112.4989,-0.0005193204
112.5989,-0.0005185048
112.6989,-0.0005177213
112.7989,-0.0005170366
112.8988,-0.000516239
112.9988,-0.0005154932
113.0988,-0.0005148255
113.1988,-0.0005140787
113.2988,-0.000513316
113.3988,-0.0005126341
113.4988,-0.0005118072
113.5988,-0.0005110831
113.6988,-0.0005103758
113.7988,-0.0005096384
113.8988,-0.0005089189
113.9988,-0.0005081816
114.0988,-0.0005074423
114.1988,-0.0005067115
114.2988,-0.0005059807
114.3988,-0.0005052414
114.4988,-0.0005044947
114.5988,-0.0005038251
114.6988,-0.0005030802
114.7988,-0.0005023165
114.8988,-0.0005015961
114.9988,-0.0005009368
115.0988,-0.0005002428
115.1988,-0.000499576
115.2988,-0.0004988396
115.3988,-0.0004980655
115.4988,-0.0004973809
115.5988,-0.0004966755
115.6988,-0.000496005
115.7988,-0.0004953062
115.8988,-0.0004946395
115.9988,-0.0004938823
116.0988,-0.0004931647
116.1988,-0.0004925178
116.2988,-0.0004918557
116.3988,-0.0004911306
116.4988,-0.0004904902
116.5988,-0.0004897745
116.6988,-0.000489104
116.7988,-0.0004884034
116.8988,-0.0004877583
116.9988,-0.0004870774
117.0988,-0.0004863532
117.1988,-0.0004856799
117.2988,-0.0004850762
117.3988,-0.0004844019
117.4988,-0.0004836156
117.5988,-0.0004830383
117.6988,-0.0004823348
117.7988,-0.0004816219
117.8988,-0.0004809609
117.9988,-0.0004803101
118.0988,-0.0004796273
118.1988,-0.000478938
118.2988,-0.0004783164
118.3988,-0.0004776214
118.4988,-0.0004769914
118.5988,-0.0004763285
118.6988,-0.0004756099
118.7988,-0.0004750185
118.8988,-0.0004743998
118.9988,-0.0004736982
119.0988,-0.0004729994
119.1988,-0.0004724429
119.2988,-0.0004717253
119.3988,-0.0004711084
119.4987,-0.0004705283
119.5987,-0.0004698088
119.6987,-0.0004691063
119.7987,-0.0004685695
119.8987,-0.0004679517
119.9987,-0.000467252
120.0987,-0.0004666371
120.1987,-0.0004659939
120.2987,-0.0004654044
120.3987,-0.0004647903
120.4987,-0.0004641199
120.5987,-0.0004635473
120.6987,-0.0004629069
120.7987,-0.000462275
120.8987,-0.0004617137
120.9987,-0.0004610724
121.0987,-0.0004605008
121.1987,-0.0004598256
121.2987,-0.0004592916
121.3987,-0.0004586107
121.4987,-0.0004579911
121.5987,-0.000457491
121.6987,-0.0004567697
121.7987,-0.0004561697
121.8987,-0.0004556169
121.9987,-0.0004550105
122.0987,-0.00045434
122.1987,-0.0004537552
122.2987,-0.0004531704
122.3987,-0.0004526562
122.4987,-0.0004520544
122.5987,-0.0004514602
122.6987,-0.0004508094
122.7987,-0.0004502707
122.8987,-0.0004497217
122.9987,-0.0004492028
123.0987,-0.0004485191
123.1987,-0.0004480294
123.2987,-0.0004474201
123.3987,-0.0004467778
123.4987,-0.0004462354
123.5987,-0.0004456986
123.6987,-0.0004449603
123.7987,-0.000444448
123.8987,-0.0004439093
123.9987,-0.0004432841
124.0987,-0.0004427086
124.1987,-0.0004421916
124.2987,-0.0004416454
124.3987,-0.0004411878
124.4987,-0.0004406368
124.5987,-0.0004399852
124.6987,-0.0004394352
124.7987,-0.0004388984
124.8987,-0.0004383776
124.9987,-0.0004378531
125.0987,-0.0004372137
125.1987,-0.0004366091
125.2987,-0.0004361335
125.3987,-0.0004355826
125.4987,-0.0004349205
125.5987,-0.0004344054
125.6987,-0.0004338865
125.7987,-0.0004333102
125.8987,-0.0004327696
125.9986,-0.0004323317
126.0986,-0.000431681
126.1986,-0.000431162
126.2986,-0.0004306526
126.3986,-0.0004300311
126.4986,-0.0004295282
126.5986,-0.0004290272
126.6986,-0.0004284103
126.7986,-0.0004278726
126.8986,-0.0004273744
126.9986,-0.0004268207
127.0986,-0.0004263451
127.1986,-0.0004258291
127.2986,-0.0004251576
127.3986,-0.0004246896
127.4986,-0.0004241697
127.5986,-0.0004236028
127.6986,-0.0004231451
127.7986,-0.0004225848
127.8986,-0.0004219764
127.9986,-0.0004215668
128.0986,-0.0004210366
128.1986,-0.0004204405
128.2986,-0.0004199715
128.3986,-0.0004194526
128.4986,-0.000418962
128.5986,-0.0004184477
128.6987,-0.0004179204
128.7987,-0.0004173318
128.8987,-0.0004168798
128.9987,-0.0004163722
129.0987,-0.0004158269
129.1987,-0.0004153495
129.2987,-0.0004148146
129.3987,-0.000414242
129.4987,-0.0004138078
129.5987,-0.0004132889
129.6987,-0.0004127192
129.7987,-0.0004122681
129.8987,-0.0004117558
129.9987,-0.0004112501
130.0987,-0.0004107933
130.1987,-0.0004103244
130.2988,-0.0004097019
130.3988,-0.000409377
130.4988,-0.0004088157
130.5988,-0.0004082629
130.6988,-0.000407842
130.7988,-0.0004073467
130.8988,-0.0004068193
130.9988,-0.0004063418
131.0988,-0.0004058154
131.1988,-0.0004053182
131.2988,-0.0004047945
131.3988,-0.0004043849
131.4988,-0.0004038434
131.5988,-0.0004033857
131.6988,-0.0004028876
131.7988,-0.0004023253
131.8988,-0.0004018403
131.9989,-0.0004013704
132.0989,-0.0004009146
132.1989,-0.0004004409
132.2989,-0.0003999145
132.3989,-0.000399438
132.4989,-0.000398953
132.5989,-0.0003985377
132.6989,-0.000398047
132.7989,-0.0003975997
132.8989,-0.0003970507
132.9989,-0.00039656
133.0989,-0.0003961146
133.1989,-0.0003956569
133.2989,-0.0003952143
133.3989,-0.000394718
133.4989,-0.0003942867
133.599,-0.0003938026
133.699,-0.0003933591
133.799,-0.0003929136
133.899,-0.0003924014
133.999,-0.0003919314
134.099,-0.0003916018
134.199,-0.0003911969
134.299,-0.0003905697
134.399,-0.0003901525
134.499,-0.0003897381
134.599,-0.0003892277
134.699,-0.0003887343
134.799,-0.000388367
134.899,-0.0003878471
134.999,-0.0003873904
135.099,-0.00038696
135.1991,-0.0003865014
135.2991,-0.0003860032
135.3991,-0.0003856124
135.4991,-0.0003851152
135.5991,-0.0003846641
135.6991,-0.0003842723
135.7991,-0.0003838335
135.8991,-0.0003833654
135.9991,-0.0003828861
136.0991,-0.0003825075
136.1991,-0.000382047
136.2991,-0.0003816166
136.3991,-0.0003811477
136.4991,-0.0003806608
136.5991,-0.0003802361
136.6991,-0.0003798396
136.7991,-0.0003794055
136.8992,-0.0003789158
136.9992,-0.0003784421
137.0992,-0.0003780739
137.1992,-0.0003776887
137.2992,-0.0003771688
137.3992,-0.0003767404
137.4992,-0.0003763345
137.5992,-0.0003758815
137.6992,-0.0003754455
137.7992,-0.000375049
137.8992,-0.0003745979
137.9992,-0.0003741657
138.0992,-0.0003737701
138.1992,-0.000373368
138.2992,-0.0003728407
138.3992,-0.0003725073
138.4993,-0.0003720562
138.5993,-0.0003716701
138.6993,-0.000371235
138.7993,-0.0003707952
138.8993,-0.0003704402
138.9993,-0.0003700475
139.0993,-0.0003695097
139.1993,-0.0003691764
139.2993,-0.0003688336
139.3993,-0.0003683599
139.4993,-0.0003679154
139.5993,-0.0003675142
139.6993,-0.0003671008
139.7993,-0.0003667157
139.8993,-0.0003662806
139.9993,-0.0003658992
140.0993,-0.0003654292
140.1994,-0.0003650431
140.2994,-0.0003646316
140.3994,-0.0003642323
140.4994,-0.0003638292
140.5994,-0.0003634121
140.6994,-0.0003630222
140.7994,-0.000362604
140.8994,-0.0003621803
140.9994,-0.0003617781
141.0994,-0.0003613713
141.1994,-0.0003609899
141.2994,-0.0003606386
141.3994,-0.0003602243
141.4994,-0.0003598193
141.5994,-0.0003594201
141.6994,-0.0003590085
141.7995,-0.0003585866
141.8995,-0.00035824
141.9995,-0.00035787
142.0995,-0.0003574566
142.1995,-0.0003570902
142.2995,-0.0003566862
142.3995,-0.0003562398
142.4995,-0.0003559055
142.5995,-0.0003555382
142.6995,-0.0003551079
142.7995,-0.0003546973
142.8995,-0.0003543592
142.9995,-0.0003539175
143.0995,-0.0003535917
143.1995,-0.0003531952
143.2995,-0.0003527865
143.3996,-0.0003524183
143.4996,-0.0003520482
143.5996,-0.0003516649
143.6996,-0.0003512656
143.7996,-0.0003509125
143.8996,-0.0003504868
143.9996,-0.0003501101
144.0996,-0.0003497974
144.1996,-0.0003493774
144.2996,-0.0003490638
144.3996,-0.0003486212
144.4996,-0.0003482389
144.5996,-0.0003478584
144.6996,-0.0003475118
144.7996,-0.0003471041
144.8996,-0.0003467745
144.9996,-0.0003464223
145.0997,-0.0003459881
145.1997,-0.0003456265
145.2997,-0.0003452752
145.3997,-0.0003448844
145.4997,-0.0003445699
145.5997,-0.0003442111
145.6997,-0.000343793
145.7997,-0.0003434699
145.8997,-0.0003431215
145.9997,-0.0003427081
146.0997,-0.0003423945
146.1997,-0.0003420592
146.2997,-0.0003416618
146.3997,-0.0003413539
146.4997,-0.0003409094
146.5997,-0.0003405157
146.6998,-0.0003402106
146.7998,-0.0003398367
146.8998,-0.0003394535
146.9998,-0.0003391474
147.0998,-0.0003387556
147.1998,-0.0003383356
147.2998,-0.0003380587
147.3998,-0.0003376604
147.4998,-0.0003372959
147.5998,-0.0003369381
147.6998,-0.0003365953
147.7998,-0.0003362487
147.8998,-0.0003359681
147.9998,-0.0003355895
148.0998,-0.0003352759
148.1998,-0.0003349604
148.2999,-0.0003345179
148.3999,-0.000334175
148.4999,-0.0003338699
148.5999,-0.0003334951
148.6999,-0.0003331448
148.7999,-0.0003327822
148.8999,-0.0003324262
148.9999,-0.0003320627
149.0999,-0.0003317181
149.1999,-0.0003314393
149.2999,-0.000331041
149.3999,-0.000330685
149.4999,-0.0003303422
149.5999,-0.0003300079
149.6999,-0.0003296952
149.7999,-0.0003293346
149.8999,-0.0003289663
150,-0.0003286396
150.1,-0.0003283147
150.2,-0.0003279615
150.3,-0.0003276592
150.4,-0.0003273268
150.5,-0.0003268804
150.6,-0.0003265951
150.7,-0.0003262956
150.8,-0.0003259142
150.9,-0.0003256345
151,-0.0003253265
151.1,-0.0003249207
151.2,-0.0003245986
151.3,-0.0003242812
151.4,-0.0003238791
151.5,-0.0003235598
151.6001,-0.0003232717
151.7001,-0.0003228922
151.8001,-0.0003225936
151.9001,-0.0003222895
152.0001,-0.0003218911
152.1001,-0.0003216086
152.2001,-0.0003213016
152.3001,-0.0003210247
152.4001,-0.0003207299
152.5001,-0.0003203156
152.6001,-0.0003200651
152.7001,-0.0003197129
152.8001,-0.0003193654
152.9001,-0.0003190349
153.0001,-0.0003187862
153.1001,-0.0003183558
153.2001,-0.0003180658
153.3002,-0.0003177776
153.4002,-0.0003174301
153.5002,-0.000317077
153.6002,-0.0003168104
153.7002,-0.0003164714
153.8002,-0.0003161249
153.9002,-0.000315849
154.0002,-0.000315573
154.1002,-0.0003151822
154.2002,-0.0003149421
154.3002,-0.0003146266
154.4002,-0.0003142452
154.5002,-0.0003140003
154.6002,-0.0003136632
154.7002,-0.0003132837
154.8002,-0.0003130304
154.9003,-0.0003127318
155.0003,-0.000312358
155.1003,-0.0003121028
155.2003,-0.0003118184
155.3003,-0.0003114746
155.4003,-0.0003111648
155.5003,-0.0003108493
155.6003,-0.0003105414
155.7003,-0.0003102231
155.8003,-0.0003099528
155.9003,-0.0003096524
156.0003,-0.0003093453
156.1003,-0.0003090157
156.2003,-0.0003087229
156.3003,-0.0003084695
156.4003,-0.0003081343
156.5004,-0.0003078179
156.6004,-0.0003076163
156.7004,-0.0003073037
156.8004,-0.0003069091
156.9004,-0.0003066379
157.0004,-0.0003064043
157.1004,-0.0003060323
157.2004,-0.0003057546
157.3004,-0.0003054033
157.4004,-0.0003051047
157.5004,-0.000304826
157.6004,-0.0003045152
157.7004,-0.0003042477
157.8004,-0.0003039332
157.9004,-0.0003036733
158.0004,-0.0003033823
158.1004,-0.0003030555
158.2005,-0.0003027843
158.3005,-0.000302498
158.4005,-0.0003021628
158.5005,-0.000301917
158.6005,-0.0003016081
158.7005,-0.0003012644
158.8005,-0.0003010101
158.9005,-0.0003007172
159.0005,-0.0003004262
159.1005,-0.0003001418
159.2005,-0.0002998923
159.3005,-0.0002995316
159.4005,-0.0002992632
159.5005,-0.000299008
159.6005,-0.0002986915
159.7005,-0.000298425
159.8006,-0.0002981416
159.9006,-0.0002977922
160.0006,-0.0002975379
160.1006,-0.000297278
160.2006,-0.0002969663
160.3006,-0.0002966951
160.4006,-0.0002964691
160.5006,-0.0002961498
160.6006,-0.0002959012
160.7006,-0.0002956253
160.8006,-0.0002953126
160.9006,-0.0002950452
161.0006,-0.0002948126
161.1006,-0.0002944773
161.2006,-0.0002942033
161.3006,-0.0002939518
161.4007,-0.0002936043
161.5007,-0.0002933585
161.6007,-0.0002931268
161.7007,-0.0002927888
161.8007,-0.0002925401
161.9007,-0.0002923047
162.0007,-0.000291944
162.1007,-0.0002917237
162.2007,-0.0002914449
162.3007,-0.0002911002
162.4007,-0.0002908724
162.5007,-0.0002906397
162.6007,-0.0002903167
162.7007,-0.0002900474
162.8007,-0.0002898185
162.9007,-0.0002894607
163.0007,-0.0002892422
163.1008,-0.0002889748
163.2008,-0.0002886781
163.3008,-0.000288454
163.4008,-0.0002881846
163.5008,-0.0002878325
163.6008,-0.0002875951
163.7008,-0.0002873804
163.8008,-0.0002870734
163.9008,-0.0002868088
164.0008,-0.0002865206
164.1008,-0.0002862437
164.2008,-0.0002859961
164.3008,-0.000285722
164.4008,-0.0002854348
164.5008,-0.0002851768
164.6008,-0.0002849536
164.7009,-0.0002846616
164.8009,-0.0002844366
164.9009,-0.0002842078
165.0009,-0.0002838866
165.1009,-0.000283751
165.2009,-0.0002834647
165.3009,-0.0002831662
165.4009,-0.0002829383
165.5009,-0.0002826369
165.6009,-0.0002824212
165.7009,-0.0002821774
165.8009,-0.0002818911
165.9009,-0.0002816613
166.0009,-0.0002813807
166.1009,-0.0002811198
166.2009,-0.0002808608
166.3009,-0.0002806357
166.401,-0.0002803353
166.501,-0.0002800509
166.601,-0.0002798541
166.701,-0.0002795904
166.801,-0.000279355
166.901,-0.0002790536
167.001,-0.0002788832
167.101,-0.0002785724
167.201,-0.0002782795
167.301,-0.0002780526
167.401,-0.0002778501
167.501,-0.0002775572
167.601,-0.0002773133
167.701,-0.0002771005
167.801,-0.0002768924
167.901,-0.0002766136
168.0011,-0.0002763527
168.1011,-0.0002760749
168.2011,-0.0002758724
168.3011,-0.0002756408
168.4011,-0.0002753178
168.5011,-0.0002750974
168.6011,-0.0002748789
168.7011,-0.0002746152
168.8011,-0.0002743751
168.9011,-0.0002741208
169.0011,-0.0002738477
169.1011,-0.0002736057
169.2011,-0.0002733656
169.3011,-0.000273083
169.4011,-0.0002728749
169.5011,-0.0002726564
169.6012,-0.0002723947
169.7012,-0.0002721423
169.8012,-0.0002718692
169.9012,-0.0002716808
170.0012,-0.0002714576
170.1012,-0.0002712373
170.2012,-0.0002709067
170.3012,-0.0002707692
170.4012,-0.0002704688
170.5012,-0.0002701825
170.6012,-0.0002699612
170.7012,-0.000269754
170.8012,-0.000269464
170.9012,-0.0002692474
171.0012,-0.0002690166
171.1012,-0.0002687228
171.2012,-0.0002685947
171.3013,-0.0002684074
171.4013,-0.0002680815
171.5013,-0.000267847
171.6013,-0.0002676041
171.7013,-0.0002673291
171.8013,-0.000267169
171.9013,-0.0002669373
172.0013,-0.0002666237
172.1013,-0.000266426
172.2013,-0.0002662367
172.3013,-0.0002659297
172.4013,-0.0002657564
172.5013,-0.0002654823
172.6013,-0.0002652215
172.7013,-0.0002650209
172.8013,-0.0002648325
172.9014,-0.0002645274
173.0014,-0.0002643419
173.1014,-0.0002640829
173.2014,-0.0002638541
173.3014,-0.0002636648
173.4014,-0.0002634925
173.5014,-0.0002632015
173.6014,-0.0002629698
173.7014,-0.0002627664
173.8014,-0.0002625131
173.9014,-0.0002623068
174.0014,-0.0002621015
174.1014,-0.0002618501
174.2014,-0.0002616363
174.3014,-0.0002614206
174.4014,-0.0002611504
174.5014,-0.0002609488
174.6015,-0.000260801
174.7015,-0.0002605383
174.8015,-0.000260283
174.9015,-0.0002600853
175.0015,-0.0002598263
175.1015,-0.0002596361
175.2015,-0.000259411
175.3015,-0.0002591633
175.4015,-0.0002589665
175.5015,-0.0002587414
175.6015,-0.0002584938
175.7015,-0.0002582828
175.8015,-0.0002580869
175.9015,-0.0002578374
176.0015,-0.0002576227
176.1015,-0.0002573995
176.2016,-0.0002571829
176.3016,-0.0002569964
176.4016,-0.0002567478
176.5016,-0.0002565217
176.6016,-0.000256324
176.7016,-0.0002561224
176.8016,-0.0002559237
176.9016,-0.0002557147
177.0016,-0.0002554463
177.1016,-0.000255273
177.2016,-0.0002550376
177.3016,-0.0002547899
177.4016,-0.0002546044
177.5016,-0.0002544142
177.6016,-0.0002541383
177.7016,-0.000253899
177.8017,-0.000253754
177.9017,-0.0002535365
178.0017,-0.0002532775
178.1017,-0.0002530571
178.2017,-0.0002529036
178.3017,-0.0002527021
178.4017,-0.000252446
178.5017,-0.0002522567
178.6017,-0.0002521154
178.7017,-0.0002518386
178.8017,-0.0002516672
178.9017,-0.0002514082
179.0017,-0.0002512264
179.1017,-0.0002509834
179.2017,-0.0002507565
179.3017,-0.0002505408
179.4017,-0.0002503318
179.5018,-0.0002501585
179.6018,-0.0002499673
179.7018,-0.0002497197
179.8018,-0.0002495266
179.9018,-0.0002493109
180.0018,-0.0002490717
180.1018,-0.0002488994
180.2018,-0.0002487016
180.3018,-0.0002484257
180.4018,-0.0002482703
180.5018,-0.0002480754
180.6018,-0.0002478597
180.7018,-0.0002476516
180.8018,-0.0002474246
180.9018,-0.0002472542
181.0018,-0.000247079
181.1019,-0.0002468003
181.2019,-0.0002466119
181.3019,-0.0002464321
181.4019,-0.0002461656
181.5019,-0.0002460064
181.6019,-0.0002458208
181.7019,-0.0002455393
181.8019,-0.0002453538
181.9019,-0.000245156
182.0019,-0.0002449469
182.1019,-0.0002447765
182.2019,-0.0002445411
182.3019,-0.0002443696
182.4019,-0.0002442124
182.5019,-0.0002440871
182.6019,-0.0002437632
182.702,-0.0002435551
182.802,-0.0002433978
182.902,-0.0002431803
183.002,-0.0002429684
183.102,-0.0002427603
183.202,-0.0002425512
183.302,-0.0002423562
183.402,-0.0002421933
183.502,-0.0002419843
183.602,-0.0002417714
183.702,-0.0002415982
183.802,-0.0002414041
183.902,-0.0002411715
184.002,-0.0002410039
184.102,-0.0002408174
184.202,-0.0002405943
184.302,-0.0002403607
184.4021,-0.0002401846
184.5021,-0.000240017
184.6021,-0.000239855
184.7021,-0.0002396026
184.8021,-0.0002394849
184.9021,-0.0002393031
185.0021,-0.0002390498
185.1021,-0.0002389114
185.2021,-0.0002387212
185.3021,-0.0002384829
185.4021,-0.0002382889
185.5021,-0.0002380921
185.6021,-0.0002379019
185.7021,-0.0002377276
185.8021,-0.0002375233
185.9021,-0.0002373114
186.0022,-0.000237108
186.1022,-0.0002369507
186.2022,-0.0002367369
186.3022,-0.0002365863
186.4022,-0.0002363574
186.5022,-0.0002361691
186.6022,-0.0002359826
186.7022,-0.0002358187
186.8022,-0.0002355908
186.9022,-0.0002354006
187.0022,-0.0002352754
187.1022,-0.0002350155
187.2022,-0.0002348977
187.3022,-0.0002347028
187.4022,-0.0002345097
187.5022,-0.0002343581
187.6022,-0.0002342027
187.7023,-0.0002339334
187.8023,-0.0002337677
187.9023,-0.0002335925
188.0023,-0.0002333599
188.1023,-0.0002332318
188.2023,-0.0002330745
188.3023,-0.0002327986
188.4023,-0.0002326715
188.5023,-0.0002325114
188.6023,-0.0002322552
188.7023,-0.0002321102
188.8023,-0.000231985
188.9023,-0.0002318249
189.0023,-0.0002316064
189.1023,-0.0002314331
189.2023,-0.0002312447
189.3024,-0.0002310828
189.4024,-0.000230902
189.5024,-0.0002306891
189.6024,-0.0002305441
189.7024,-0.0002303661
189.8024,-0.0002301486
189.9024,-0.0002299894
190.0024,-0.0002297681
190.1024,-0.0002295958
190.2024,-0.0002294178
190.3024,-0.0002292511
190.4024,-0.000229027
190.5024,-0.0002288678
190.6024,-0.0002287115
190.7024,-0.0002285382
190.8024,-0.0002283565
190.9025,-0.0002281945
191.0025,-0.0002279487
191.1025,-0.0002278668
191.2025,-0.000227652
191.3025,-0.0002274279
191.4025,-0.0002272951
191.5025,-0.0002271595
191.6025,-0.0002269768
191.7025,-0.0002267866
191.8025,-0.0002266001
191.9025,-0.0002264184
192.0025,-0.0002262705
192.1025,-0.0002260991
192.2025,-0.0002259287
192.3025,-0.0002257818
192.4025,-0.0002256151
192.5025,-0.0002254465
192.6026,-0.0002252666
192.7026,-0.0002250651
192.8026,-0.000224937
192.9026,-0.0002247694
193.0026,-0.000224582
193.1026,-0.0002244398
193.2026,-0.0002242364
193.3026,-0.0002240433
193.4026,-0.0002238983
193.5026,-0.0002236987
193.6026,-0.0002235292
193.7026,-0.0002233888
193.8026,-0.0002232042
193.9026,-0.0002230215
194.0026,-0.000222885
194.1026,-0.0002227211
194.2027,-0.0002225177
194.3027,-0.0002223548
194.4027,-0.0002221909
194.5027,-0.0002220045
194.6027,-0.0002218406
194.7027,-0.0002216777
194.8027,-0.0002215035
194.9027,-0.0002213245
195.0027,-0.0002211626
195.1027,-0.0002209884
195.2027,-0.000220832
195.3027,-0.0002206616
195.4027,-0.0002204761
195.5027,-0.0002203339
195.6027,-0.0002201257
195.7027,-0.0002199845
195.8027,-0.0002198423
195.9028,-0.000219652
196.0028,-0.0002194778
196.1028,-0.0002192782
196.2028,-0.0002191671
196.3028,-0.0002189994
196.4028,-0.0002188318
196.5028,-0.0002186689
196.6028,-0.0002184674
196.7028,-0.0002183242
196.8028,-0.0002181697
196.9028,-0.0002180106
197.0028,-0.000217842
197.1028,-0.000217698
197.2028,-0.000217552
197.3028,-0.0002173815
197.4028,-0.0002172581
197.5029,-0.0002170425
197.6029,-0.0002168899
197.7029,-0.0002167939
197.8029,-0.0002165867
197.9029,-0.0002163786
198.0029,-0.0002162496
198.1029,-0.0002161111
198.2029,-0.0002159237
198.3029,-0.0002157712
198.4029,-0.000215612
198.5029,-0.0002154255
198.6029,-0.0002152965
198.7029,-0.0002151421
198.8029,-0.0002150103
198.9029,-0.0002148511
199.0029,-0.0002146825
199.103,-0.0002145695
199.203,-0.0002143906
199.303,-0.0002142258
199.403,-0.0002140779
199.503,-0.0002139329
199.603,-0.0002137493
199.703,-0.000213625
199.803,-0.0002134555
199.903,-0.0002132681
200.003,-0.0002131428
200.103,-0.0002129742
200.203,-0.000212816
200.303,-0.0002126851
200.403,-0.0002124958
200.503,-0.0002123611
200.603,-0.0002122237
200.703,-0.0002120325
200.8031,-0.0002118837
200.9031,-0.0002117471
201.0031,-0.0002115268
201.1031,-0.0002114392
201.2031,-0.0002112848
201.3031,-0.0002110926
201.4031,-0.0002109288
201.5031,-0.0002108384
201.6031,-0.0002106519
201.7031,-0.0002104673
201.8031,-0.0002103459
201.9031,-0.0002101876
202.0031,-0.000210052
202.1031,-0.000209875
202.2031,-0.000209697
202.3031,-0.0002095482
202.4032,-0.0002094173
202.5032,-0.0002092365
202.6032,-0.0002090849
202.7032,-0.0002089229
202.8032,-0.0002088118
202.9032,-0.000208695
203.0032,-0.0002084982
203.1032,-0.0002082995
203.2032,-0.0002081883
203.3032,-0.0002080122
203.4032,-0.0002078597
203.5032,-0.0002077476
203.6032,-0.0002075423
203.7032,-0.0002073624
203.8032,-0.0002072975
203.9032,-0.00020716
204.0033,-0.0002069085
204.1033,-0.0002068718
204.2033,-0.0002067409
204.3033,-0.0002064932
204.4033,-0.0002064141
204.5033,-0.0002063021
204.6033,-0.0002060563
204.7033,-0.0002059395
204.8033,-0.0002057879
204.9033,-0.0002056683
205.0033,-0.0002055157
205.1033,-0.0002053603
205.2033,-0.0002051654
205.3033,-0.0002050769
205.4033,-0.0002049196
205.5033,-0.0002047623
205.6033,-0.0002046267
205.7034,-0.000204445
205.8034,-0.000204315
205.9034,-0.0002042105
206.0034,-0.0002040494
206.1034,-0.0002038272
206.2034,-0.0002038112
206.3034,-0.0002036209
206.4034,-0.0002034401
206.5034,-0.0002033234
206.6034,-0.0002031896
206.7034,-0.0002030277
206.8034,-0.0002029165
206.9034,-0.0002027423
207.0034,-0.0002025596
207.1034,-0.0002025003
207.2034,-0.0002023788
207.3035,-0.0002021735
207.4035,-0.0002020266
207.5035,-0.0002019362
207.6035,-0.0002018138
207.7035,-0.0002016518
207.8035,-0.0002014983
207.9035,-0.0002013721
208.0035,-0.0002012214
208.1035,-0.0002011244
208.2035,-0.0002009511
208.3035,-0.0002008391
208.4035,-0.0002006761
208.5035,-0.0002005283
208.6035,-0.0002004078
208.7035,-0.0002002486
208.8035,-0.0002001102
208.9035,-0.0001999934
209.0036,-0.0001997881
209.1036,-0.000199676
209.2036,-0.0001995338
209.3036,-0.000199401
209.4036,-0.0001992532
209.5036,-0.0001991534
209.6036,-0.0001989914
209.7036,-0.0001988417
209.8036,-0.0001986947
209.9036,-0.0001985912
210.0036,-0.000198497
210.1036,-0.0001983548
210.2036,-0.0001981975
210.3036,-0.0001980676
210.4036,-0.0001978783
210.5036,-0.0001977879
210.6037,-0.0001976852
210.7037,-0.0001975147
210.8037,-0.0001973688
210.9037,-0.0001972398
211.0037,-0.0001971192
211.1037,-0.0001969422
211.2037,-0.0001968367
211.3037,-0.0001967002
211.4037,-0.0001965373
211.5037,-0.0001964478
211.6037,-0.0001962594
211.7037,-0.0001961794
211.8037,-0.0001960155
211.9037,-0.0001958517
212.0037,-0.0001957537
212.1037,-0.0001956172
212.2038,-0.000195474
212.3038,-0.0001953394
212.4038,-0.0001952461
212.5038,-0.0001950719
212.6038,-0.0001949485
212.7038,-0.0001948412
212.8038,-0.0001946528
212.9038,-0.0001945671
213.0038,-0.0001944127
213.1038,-0.0001942677
213.2038,-0.0001941481
213.3038,-0.0001940351
213.4038,-0.00019389
213.5038,-0.0001937497
213.6038,-0.0001936358
213.7038,-0.0001934898
213.8038,-0.0001933749
213.9039,-0.0001932666
214.0039,-0.0001930745
214.1039,-0.0001930368
214.2039,-0.0001929568
214.3039,-0.0001926969
214.4039,-0.0001926356
214.5039,-0.0001924991
214.6039,-0.0001923418
214.7039,-0.0001922543
214.8039,-0.0001921318
214.9039,-0.0001919463
215.0039,-0.0001918427
215.1039,-0.0001917372
215.2039,-0.0001915451
215.3039,-0.0001914321
215.4039,-0.0001913662
215.504,-0.000191208
215.604,-0.0001910441
215.704,-0.0001909274
215.804,-0.0001907842
215.904,-0.0001906881
216.004,-0.0001905601
216.104,-0.0001903934
216.204,-0.0001903237
216.304,-0.0001901956
216.404,-0.0001900016
216.504,-0.0001898858
216.604,-0.0001898039
216.704,-0.0001896391
216.804,-0.0001895034
216.904,-0.0001894243
217.004,-0.0001892605
217.104,-0.0001891625
217.2041,-0.0001890684
217.3041,-0.0001889186
217.4041,-0.000188783
217.5041,-0.0001886785
217.6041,-0.0001885514
217.7041,-0.0001884139
217.8041,-0.0001882858
217.9041,-0.0001881624
218.0041,-0.0001880862
218.1041,-0.0001879731
218.2041,-0.0001878281
218.3041,-0.0001877358
218.4041,-0.000187636
218.5041,-0.0001874646
218.6041,-0.0001873667
218.7041,-0.000187297
218.8042,-0.0001871651
218.9042,-0.0001870116
219.0042,-0.0001868732
219.1042,-0.000186811
219.2042,-0.0001866924
219.3042,-0.0001865455
219.4042,-0.0001864287
219.5042,-0.0001863195
219.6042,-0.0001862017
219.7042,-0.0001860576
219.8042,-0.0001859512
219.9042,-0.0001858533
220.0042,-0.0001856913
220.1042,-0.0001856009
220.2042,-0.0001854879
220.3042,-0.0001853127
220.4043,-0.000185195
220.5043,-0.0001850933
220.6043,-0.0001849511
220.7043,-0.0001848249
220.8043,-0.0001847449
220.9043,-0.0001846469
221.0043,-0.0001845038
221.1043,-0.0001843814
221.2043,-0.0001842637
221.3043,-0.0001841676
221.4043,-0.0001840753
221.5043,-0.0001839105
221.6043,-0.0001837919
221.7043,-0.0001836873
221.8043,-0.0001835461
221.9043,-0.0001834651
222.0043,-0.0001833285
222.1044,-0.000183207
222.2044,-0.0001830912
222.3044,-0.0001830093
222.4044,-0.0001828445
222.5044,-0.0001827823
222.6044,-0.0001826288
222.7044,-0.0001825177
222.8044,-0.0001824216
222.9044,-0.0001822973
223.0044,-0.0001821683
223.1044,-0.0001820402
223.2044,-0.0001818952
223.3044,-0.0001817859
223.4044,-0.0001816974
223.5044,-0.0001815637
223.6044,-0.0001814272
223.7045,-0.0001812859
223.8045,-0.0001811767
223.9045,-0.0001810929
224.0045,-0.0001809911
224.1045,-0.0001808424
224.2045,-0.0001807049
224.3045,-0.0001806239
224.4045,-0.0001805316
224.5045,-0.00018038
224.6045,-0.0001802575
224.7045,-0.0001801511
224.8045,-0.000180088
224.9045,-0.0001799298
225.0045,-0.0001797914
225.1045,-0.0001797132
225.2045,-0.0001796284
225.3046,-0.000179506
225.4046,-0.0001794034
225.5046,-0.0001792857
225.6046,-0.0001791783
225.7046,-0.0001790747
225.8046,-0.0001789655
225.9046,-0.0001788157
226.0046,-0.0001787357
226.1046,-0.0001786368
226.2046,-0.0001784758
226.3046,-0.0001783392
226.4046,-0.0001782752
226.5046,-0.0001781735
226.6046,-0.0001780614
226.7046,-0.0001779202
226.8046,-0.0001777817
226.9046,-0.0001776894
227.0047,-0.000177616
227.1047,-0.0001774917
227.2047,-0.0001773523
227.3047,-0.0001772383
227.4047,-0.000177131
227.5047,-0.0001770613
227.6047,-0.0001769549
227.7047,-0.0001768212
227.8047,-0.0001766893
227.9047,-0.0001766281
228.0047,-0.0001765377
228.1047,-0.0001764002
228.2047,-0.0001762797
228.3047,-0.0001761761
228.4047,-0.0001760678
228.5047,-0.0001760018
228.6048,-0.000175886
228.7048,-0.0001757203
228.8048,-0.0001756317
228.9048,-0.0001755517
229.0048,-0.0001754566
229.1048,-0.0001752984
229.2048,-0.0001752146
229.3048,-0.0001751496
229.4048,-0.000174997
229.5048,-0.0001748765
229.6048,-0.0001748012
229.7048,-0.0001746806
229.8048,-0.0001745685
229.9048,-0.000174464
230.0048,-0.0001743435
230.1048,-0.0001742568
230.2048,-0.0001741928
230.3049,-0.0001740214
230.4049,-0.0001739263
230.5049,-0.0001738547
230.6049,-0.0001737492
230.7049,-0.0001736136
230.8049,-0.0001735289
230.9049,-0.0001734111
231.0049,-0.0001732878
231.1049,-0.0001731889
231.2049,-0.0001730985
231.3049,-0.0001729874
231.4049,-0.0001728471
231.5049,-0.0001727604
231.6049,-0.0001726502
231.7049,-0.0001725768
231.8049,-0.0001724525
231.905,-0.0001723263
232.005,-0.0001722274
232.105,-0.0001721389
232.205,-0.0001720428
232.305,-0.000171894
232.405,-0.0001718253
232.505,-0.0001717198
232.605,-0.0001715738
232.705,-0.000171506
232.805,-0.0001714213
232.905,-0.000171312
233.005,-0.0001712028
233.105,-0.0001710907
233.205,-0.000170973
233.305,-0.0001708704
233.405,-0.0001707988
233.5051,-0.0001706651
233.6051,-0.0001705586
233.7051,-0.0001704428
233.8051,-0.0001703147
233.9051,-0.0001702319
234.0051,-0.0001701311
234.1051,-0.0001700209
234.2051,-0.0001699352
234.3051,-0.0001698184
234.4051,-0.0001696941
234.5051,-0.0001695887
234.6051,-0.0001695199
234.7051,-0.0001694333
234.8051,-0.0001693014
234.9051,-0.0001692223
235.0051,-0.0001691329
235.1051,-0.000169018
235.2052,-0.0001689436
235.3052,-0.0001688362
235.4052,-0.0001686978
235.5052,-0.0001686337
235.6052,-0.0001685707
235.7052,-0.0001684369
235.8052,-0.0001683446
235.9052,-0.0001682062
236.0052,-0.0001680998
236.1052,-0.0001680226
236.2052,-0.0001679519
236.3052,-0.0001678173
236.4052,-0.0001677005
236.5052,-0.0001676091
236.6052,-0.000167483
236.7052,-0.0001673888
236.8053,-0.0001672871
236.9053,-0.0001671825
237.0053,-0.0001670695
237.1053,-0.0001669707
237.2053,-0.0001668576
237.3053,-0.0001667635
237.4053,-0.0001666599
237.5053,-0.0001665459
237.6053,-0.0001664489
237.7053,-0.0001664018
237.8053,-0.0001662662
237.9053,-0.0001662022
238.0053,-0.0001660515
238.1053,-0.0001659809
238.2053,-0.0001658801
238.3053,-0.0001658104
238.4053,-0.0001656993
238.5054,-0.0001655986
238.6054,-0.0001655006
238.7054,-0.0001653829
238.8054,-0.0001653123
238.9054,-0.0001652162
239.0054,-0.000165123
239.1054,-0.0001650523
239.2054,-0.0001649101
239.3054,-0.0001648084
239.4054,-0.0001647321
239.5054,-0.0001646634
239.6054,-0.0001645645
239.7054,-0.0001644562
239.8054,-0.0001643696
239.9054,-0.0001642415
240.0054,-0.0001641869
240.1055,-0.0001640824
240.2055,-0.0001639938
240.3055,-0.0001638968
240.4055,-0.0001637716
240.5055,-0.000163733
240.6055,-0.0001636237
240.7055,-0.0001634938
240.8055,-0.0001633977
240.9055,-0.0001633421
241.0055,-0.0001632725
241.1055,-0.0001631199
241.2055,-0.0001631171
241.3055,-0.0001630172
241.4055,-0.0001628666
241.5055,-0.0001628355
241.6055,-0.0001627319
241.7056,-0.0001625586
241.8056,-0.0001625351
241.9056,-0.0001624362
242.0056,-0.0001622695
242.1056,-0.0001621942
242.2056,-0.0001621367
242.3056,-0.000161987
242.4056,-0.0001619022
242.5056,-0.0001618599
242.6056,-0.0001617384
242.7056,-0.000161631
242.8056,-0.0001615595
242.9056,-0.0001614163
243.0056,-0.0001613843
243.1056,-0.0001612732
243.2056,-0.0001611536
243.3056,-0.0001610999
243.4057,-0.0001609906
243.5057,-0.0001608532
243.6057,-0.0001607995
243.7057,-0.0001607354
243.8057,-0.0001606149
243.9057,-0.0001605273
244.0057,-0.000160435
244.1057,-0.0001603362
244.2057,-0.0001602448
244.3057,-0.0001601252
244.4057,-0.0001600715
244.5057,-0.0001599632
244.6057,-0.0001598926
244.7057,-0.0001597523
244.8057,-0.0001596929
244.9057,-0.0001596185
245.0058,-0.0001594726
245.1058,-0.0001594142
245.2058,-0.0001592965
245.3058,-0.0001592466
245.4058,-0.000159159
245.5058,-0.000159013
245.6058,-0.0001589499
245.7058,-0.0001588652
245.8058,-0.0001587738
245.9058,-0.0001586523
246.0058,-0.0001585261
246.1058,-0.0001585403
246.2058,-0.0001584772
246.3058,-0.000158334
246.4058,-0.0001582342
246.5058,-0.000158157
246.6059,-0.0001580487
246.7059,-0.0001579997
246.8059,-0.000157914
246.9059,-0.0001577991
247.0059,-0.0001577191
247.1059,-0.0001576409
247.2059,-0.0001575627
247.3059,-0.0001574761
247.4059,-0.0001573763
247.5059,-0.0001572642
247.6059,-0.0001571776
247.7059,-0.0001571117
247.8059,-0.0001570184
247.9059,-0.0001569506
248.0059,-0.0001568141
248.1059,-0.000156735
248.2059,-0.0001566719
248.306,-0.0001565946
248.406,-0.0001564798
248.506,-0.0001564101
248.606,-0.0001562829
248.706,-0.0001562085
248.806,-0.0001561605
248.906,-0.0001560268
249.006,-0.000155927
249.106,-0.0001559119
249.206,-0.0001558573
249.306,-0.0001557113
249.406,-0.0001555945
249.506,-0.000155554
249.606,-0.0001554391
249.706,-0.0001553647
249.806,-0.0001552781
249.9061,-0.0001552018
250.0061,-0.0001551039
250.1061,-0.000155022
250.2061,-0.0001549608
250.3061,-0.0001548421
250.4061,-0.0001547799
250.5061,-0.0001547027
250.6061,-0.0001546349
250.7061,-0.0001545134
250.8061,-0.0001544221
250.9061,-0.000154358
251.0061,-0.0001542733
251.1061,-0.0001541979
251.2061,-0.0001541141
251.3061,-0.0001540105
251.4061,-0.0001539286
251.5061,-0.0001538504
251.6062,-0.000153793
251.7062,-0.0001537148
251.8062,-0.0001536018
251.9062,-0.0001535237
252.0062,-0.0001534267
252.1062,-0.0001533372
252.2062,-0.0001532562
252.3062,-0.0001532148
252.4062,-0.0001531065
252.5062,-0.0001529973
252.6062,-0.0001529558
252.7062,-0.000152872
252.8062,-0.0001527665
252.9062,-0.00015271
253.0062,-0.0001526092
253.1062,-0.0001525527
253.2063,-0.0001524539
253.3063,-0.0001524039
253.4063,-0.000152306
253.5063,-0.0001522118
253.6063,-0.0001521233
253.7063,-0.0001520395
253.8063,-0.0001519717
253.9063,-0.0001519029
254.0063,-0.0001518248
254.1063,-0.0001517711
254.2063,-0.0001517089
254.3063,-0.0001515686
254.4063,-0.0001514801
254.5063,-0.0001514029
254.6063,-0.0001513247
254.7063,-0.0001512324
254.8064,-0.0001511721
254.9064,-0.000151174
255.0064,-0.0001509895
255.1064,-0.0001509311
255.2064,-0.0001508567
255.3064,-0.0001507352
255.4064,-0.0001507069
255.5064,-0.0001506213
255.6064,-0.0001504819
255.7064,-0.0001504131
255.8064,-0.000150366
255.9064,-0.0001502304
256.0064,-0.0001501636
256.1064,-0.0001501108
256.2064,-0.0001500195
256.3064,-0.000149947
256.4064,-0.0001498707
256.5064,-0.000149769
256.6064,-0.0001496786
256.7065,-0.0001496569
256.8065,-0.000149542
256.9065,-0.0001494639
257.0065,-0.0001493518
257.1065,-0.0001493188
257.2065,-0.0001492793
257.3065,-0.0001491795
257.4065,-0.0001490457
257.5065,-0.0001489902
257.6065,-0.0001489365
257.7065,-0.0001488282
257.8065,-0.0001487547
257.9065,-0.0001486709
258.0065,-0.0001485758
258.1065,-0.0001484967
258.2065,-0.000148459
258.3065,-0.0001483338
258.4066,-0.0001482679
258.5066,-0.0001482048
258.6066,-0.0001481134
258.7066,-0.0001480287
258.8066,-0.0001480032
258.9066,-0.0001478855
259.0066,-0.0001478055
259.1066,-0.000147764
259.2066,-0.0001476614
259.3066,-0.0001475992
259.4066,-0.0001475399
259.5066,-0.0001474401
259.6066,-0.000147361
259.7066,-0.0001473167
259.8066,-0.000147231
259.9066,-0.0001471726
260.0067,-0.0001470427
260.1067,-0.0001469984
260.2067,-0.0001470125
260.3067,-0.0001469136
260.4067,-0.0001467856
260.5067,-0.0001467234
260.6067,-0.0001466763
260.7067,-0.0001465614
260.8067,-0.0001464984
260.9067,-0.0001464437
261.0067,-0.0001463514
261.1067,-0.0001462733
261.2067,-0.0001461989
261.3067,-0.0001461019
261.4067,-0.000146035
261.5067,-0.0001460058
261.6068,-0.000145889
261.7068,-0.0001458335
261.8068,-0.0001457186
261.9068,-0.0001456395
262.0068,-0.0001455641
262.1068,-0.0001454888
262.2068,-0.0001454144
262.3068,-0.0001453588
262.4068,-0.0001452637
262.5068,-0.0001451733
262.6068,-0.0001451667
262.7068,-0.0001451017
262.8068,-0.0001449803
262.9068,-0.000144937
263.0068,-0.0001448249
263.1068,-0.0001447524
263.2068,-0.0001446799
263.3069,-0.0001446234
263.4069,-0.0001445066
263.5069,-0.0001444708
263.6069,-0.0001444049
263.7069,-0.0001442796
263.8069,-0.0001442467
263.9069,-0.0001441572
264.0069,-0.0001440715
264.1069,-0.0001440404
264.2069,-0.0001439679
264.3069,-0.0001438483
264.4069,-0.0001438154
264.5069,-0.000143724
264.6069,-0.0001436195
264.7069,-0.000143578
264.8069,-0.0001435102
264.907,-0.0001433916
265.007,-0.0001433652
265.107,-0.0001433078
265.207,-0.0001431665
265.307,-0.000143142
265.407,-0.0001430639
265.507,-0.0001429395
265.607,-0.000142868
265.707,-0.0001428623
265.807,-0.0001427493
265.907,-0.0001427117
266.007,-0.0001425826
266.107,-0.0001425252
266.207,-0.0001424677
266.307,-0.0001423886
266.407,-0.0001422907
266.507,-0.0001422634
266.6071,-0.000142189
266.7071,-0.0001420656
266.8071,-0.000142059
266.9071,-0.0001420129
267.0071,-0.0001418792
267.1071,-0.0001418283
267.2071,-0.0001417539
267.3071,-0.0001416597
267.4071,-0.0001416202
267.5071,-0.0001415684
267.6071,-0.0001414657
267.7071,-0.0001414337
267.8071,-0.0001413442
267.9071,-0.0001412491
268.0071,-0.0001411983
268.1071,-0.0001411455
268.2072,-0.0001410363
268.3072,-0.0001409977
268.4072,-0.0001409487
268.5072,-0.0001408206
268.6072,-0.0001408046
268.7072,-0.000140718
268.8072,-0.0001406041
268.9072,-0.0001405541
269.0072,-0.0001405099
269.1072,-0.0001403752
269.2072,-0.0001403526
269.3072,-0.0001402839
269.4072,-0.0001401699
269.5072,-0.0001401407
269.6072,-0.0001400748
269.7072,-0.0001399731
269.8073,-0.0001399288
269.9073,-0.0001398648
270.0073,-0.0001397828
270.1073,-0.0001397198
270.2073,-0.0001396812
270.3073,-0.0001395484
270.4073,-0.0001395314
270.5073,-0.0001394787
270.6073,-0.0001393676
270.7073,-0.0001393393
270.8073,-0.000139264
270.9073,-0.0001391877
271.0073,-0.0001391566
271.1073,-0.0001390832
271.2073,-0.0001389918
271.3073,-0.0001389475
271.4073,-0.0001388958
271.5074,-0.0001387564
271.6074,-0.0001387253
271.7074,-0.0001386895
271.8074,-0.0001385944
271.9074,-0.0001385812
272.0074,-0.0001384804
272.1074,-0.0001383665
272.2074,-0.0001383401
272.3074,-0.0001382723
272.4074,-0.000138196
272.5074,-0.0001381122
272.6074,-0.0001380755
272.7074,-0.0001379568
272.8074,-0.0001379258
272.9074,-0.0001378928
273.0074,-0.0001377544
273.1075,-0.0001377063
273.2075,-0.0001376546
273.3075,-0.0001375735
273.4075,-0.0001375265
273.5075,-0.0001374464
273.6075,-0.0001373588
273.7075,-0.0001373108
273.8075,-0.0001372524
273.9075,-0.0001371535
274.0075,-0.0001371112
274.1075,-0.0001370914
274.2075,-0.0001369445
274.3075,-0.0001369369
274.4075,-0.0001368908
274.5075,-0.0001367769
274.6075,-0.0001367392
274.7076,-0.0001366638
274.8076,-0.00013658
274.9076,-0.0001365433
275.0076,-0.0001364717
275.1076,-0.000136403
275.2076,-0.0001363681
275.3076,-0.0001362627
275.4076,-0.0001361732
275.5076,-0.0001361666
275.6076,-0.0001361214
275.7076,-0.0001359914
275.8076,-0.0001359783
275.9076,-0.0001359076
276.0076,-0.0001358078
276.1076,-0.000135741
276.2076,-0.0001356703
276.3076,-0.0001356581
276.4077,-0.0001355771
276.5077,-0.0001354886
276.6077,-0.0001354321
276.7077,-0.0001353756
276.8077,-0.0001353162
276.9077,-0.0001352465
277.0077,-0.0001351288
277.1077,-0.0001351364
277.2077,-0.0001350949
277.3077,-0.000134996
277.4077,-0.0001349103
277.5077,-0.0001348642
277.6077,-0.0001347776
277.7077,-0.0001347663
277.8077,-0.0001346664
277.9077,-0.0001345939
278.0078,-0.0001345092
278.1078,-0.0001344687
278.2078,-0.000134414
278.3078,-0.0001343331
278.4078,-0.000134269
278.5078,-0.0001341946
278.6078,-0.0001341485
278.7078,-0.0001340901
278.8078,-0.0001339874
278.9078,-0.0001339573
279.0078,-0.0001338905
279.1078,-0.0001338114
279.2078,-0.0001337492
279.3078,-0.0001337266
279.4078,-0.0001336371
279.5078,-0.0001335646
279.6078,-0.0001335646
279.7079,-0.0001334582
279.8079,-0.0001333989
279.9079,-0.0001333763
280.0079,-0.0001332896
280.1079,-0.0001332491
280.2079,-0.0001332002
280.3079,-0.0001331098
280.4079,-0.0001330363
280.5079,-0.0001329836
280.6079,-0.0001329139
280.7079,-0.0001328574
280.8079,-0.0001327717
280.9079,-0.0001326907
281.0079,-0.0001326624
281.1079,-0.0001325937
281.2079,-0.000132492
281.308,-0.000132508
281.408,-0.0001324072
281.508,-0.0001323309
281.608,-0.0001323168
281.708,-0.0001322208
281.808,-0.000132136
281.908,-0.0001320936
282.008,-0.0001320315
282.108,-0.0001319655
282.208,-0.0001319203
282.308,-0.0001318365
282.408,-0.0001317245
282.508,-0.0001317216
282.608,-0.000131668
282.708,-0.0001315531
282.808,-0.0001314975
282.9081,-0.0001314853
283.0081,-0.000131441
283.1081,-0.000131392
283.2081,-0.0001313073
283.3081,-0.0001312216
283.4081,-0.00013115
283.5081,-0.0001311283
283.6081,-0.0001310492
283.7081,-0.0001309946
283.8081,-0.0001309683
283.9081,-0.0001308439
284.0081,-0.0001308628
284.1081,-0.0001307488
284.2081,-0.0001306744
284.3081,-0.000130633
284.4081,-0.0001305746
284.5081,-0.0001305219
284.6082,-0.0001304663
284.7082,-0.0001303816
284.8082,-0.0001302959
284.9082,-0.0001302742
285.0082,-0.0001302422
285.1082,-0.0001301329
285.2082,-0.0001300745
285.3082,-0.0001300218
285.4082,-0.0001299418
285.5082,-0.0001299192
285.6082,-0.0001298561
285.7082,-0.0001297751
285.8082,-0.0001297148
285.9082,-0.0001296771
286.0082,-0.0001296065
286.1082,-0.0001295585
286.2083,-0.0001295001
286.3083,-0.0001294163
286.4083,-0.0001293965
286.5083,-0.0001293278
286.6083,-0.0001292647
286.7083,-0.00012921
286.8083,-0.0001291705
286.9083,-0.0001291055
287.0083,-0.0001290217
287.1083,-0.0001290151
287.2083,-0.0001289482
287.3083,-0.0001288512
287.4083,-0.0001288559
287.5083,-0.0001287947
287.6083,-0.0001286808
287.7083,-0.0001286412
287.8083,-0.0001285941
287.9084,-0.0001285461
288.0084,-0.0001285085
288.1084,-0.0001284218
288.2084,-0.000128322
288.3084,-0.0001283333
288.4084,-0.0001283145
288.5084,-0.0001282043
288.6084,-0.0001281365
288.7084,-0.0001281252
288.8084,-0.0001280564
288.9084,-0.0001280206
289.0084,-0.0001279689
289.1084,-0.0001278831
289.2084,-0.0001278474
289.3084,-0.000127804
289.4084,-0.0001277183
289.5085,-0.0001276712
289.6085,-0.0001276543
289.7085,-0.0001275714
289.8085,-0.0001275319
289.9085,-0.0001275074
290.0085,-0.0001274142
290.1085,-0.0001273859
290.2085,-0.0001273567
290.3085,-0.0001272908
290.4085,-0.00012724
290.5085,-0.000127175
290.6085,-0.0001271279
290.7085,-0.0001270902
290.8085,-0.0001270309
290.9085,-0.0001269565
291.0085,-0.0001268943
291.1086,-0.000126852
291.2086,-0.0001267747
291.3086,-0.0001267587
291.4086,-0.0001266862
291.5086,-0.0001266542
291.6086,-0.0001265572
291.7086,-0.0001265242
291.8086,-0.0001264611
291.9086,-0.0001263952
292.0086,-0.0001263491
292.1086,-0.0001262718
292.2086,-0.0001262125
292.3086,-0.0001261918
292.4086,-0.0001261456
292.5086,-0.0001260618
292.6086,-0.000125994
292.7086,-0.0001259357
292.8087,-0.000125882
292.9087,-0.0001258584
293.0087,-0.000125785
293.1087,-0.00012572
293.2087,-0.0001256362
293.3087,-0.0001256418
293.4087,-0.0001255759
293.5087,-0.0001255053
293.6087,-0.0001254384
293.7087,-0.0001253913
293.8087,-0.000125331
293.9087,-0.0001253056
294.0087,-0.0001252576
294.1087,-0.00012517
294.2087,-0.0001251295
294.3087,-0.0001250843
294.4088,-0.0001249977
294.5088,-0.0001249572
294.6088,-0.0001249176
294.7088,-0.0001248442
294.8088,-0.0001247999
294.9088,-0.0001247622
295.0088,-0.0001246963
295.1088,-0.0001246389
295.2088,-0.0001245937
295.3088,-0.0001245164
295.4088,-0.0001245136
295.5088,-0.000124475
295.6088,-0.0001243818
295.7088,-0.0001243262
295.8088,-0.0001242631
295.9088,-0.0001242057
296.0089,-0.000124216
296.1089,-0.0001241398
296.2089,-0.0001240456
296.3089,-0.0001239872
296.4089,-0.0001239947
296.5089,-0.0001239184
296.6089,-0.0001238723
296.7089,-0.0001238365
296.8089,-0.0001237423
296.9089,-0.0001237075
297.0089,-0.000123668
297.1089,-0.000123602
297.2089,-0.0001235484
297.3089,-0.0001234918
297.4089,-0.0001234043
297.5089,-0.0001233534
297.6089,-0.0001233496
297.709,-0.0001232771
297.809,-0.0001231509
297.909,-0.000123198
298.009,-0.0001231519
298.109,-0.0001230615
298.209,-0.0001229993
298.309,-0.0001229522
298.409,-0.0001228741
298.509,-0.0001228458
298.609,-0.0001227903
298.709,-0.0001227507
298.809,-0.0001226613
298.909,-0.0001226132
299.009,-0.0001225661
299.109,-0.0001225134
299.209,-0.0001224738
299.3091,-0.0001223938
299.4091,-0.0001223345
299.5091,-0.0001222959
299.6091,-0.0001222695
299.7091,-0.0001222055
299.8091,-0.0001221197
299.9091,-0.0001220764
300.0091,-0.0001220265
300.1091,-0.0001219606
300.2091,-0.0001219436
300.3091,-0.0001218711
300.4091,-0.0001217986
300.5091,-0.0001217478
300.6091,-0.0001217054
300.7091,-0.0001216423
300.8091,-0.000121631
300.9091,-0.0001215707
301.0092,-0.0001214775
301.1092,-0.000121436
301.2092,-0.0001213965
301.3092,-0.0001213287
301.4092,-0.000121308
301.5092,-0.0001212562
301.6092,-0.0001211912
301.7092,-0.0001211356
301.8092,-0.0001211055
301.9092,-0.0001210226
302.0092,-0.0001209614
302.1092,-0.0001209275
302.2092,-0.0001208635
302.3092,-0.0001208192
302.4092,-0.0001207674
302.5092,-0.0001207203
302.6093,-0.0001206751
302.7093,-0.0001206365
302.8093,-0.0001205725
302.9093,-0.0001205395
303.0093,-0.0001205075
303.1093,-0.0001204171
303.2093,-0.0001203964
303.3093,-0.0001203521
303.4093,-0.0001202721
303.5093,-0.0001202598
303.6093,-0.0001202203
303.7093,-0.0001201233
303.8093,-0.00012008
303.9093,-0.000120063
304.0093,-0.0001200432
304.1093,-0.0001200272
304.2094,-0.000119901
304.3094,-0.0001198247
304.4094,-0.0001198182
304.5094,-0.0001197748
304.6094,-0.0001196948
304.7094,-0.000119659
304.8094,-0.0001196176
304.9094,-0.0001195385
305.0094,-0.0001195159
305.1094,-0.0001194697
305.2094,-0.0001193963
305.3094,-0.0001193539
305.4094,-0.0001192945
305.5094,-0.0001192569
305.6094,-0.0001192437
305.7094,-0.0001191646
305.8094,-0.0001190667
305.9095,-0.0001190855
306.0095,-0.0001190497
306.1095,-0.0001189216
306.2095,-0.0001188793
306.3095,-0.000118884
306.4095,-0.0001188199
306.5095,-0.0001187483
306.6095,-0.0001187192
306.7095,-0.0001186335
306.8095,-0.0001185977
306.9095,-0.0001185854
307.0095,-0.0001185252
307.1095,-0.0001184498
307.2095,-0.0001184037
307.3095,-0.0001183425
307.4095,-0.0001183349
307.5096,-0.0001182549
307.6096,-0.0001181993
307.7096,-0.000118156
307.8096,-0.0001181033
307.9096,-0.0001180618
308.0096,-0.0001180289
308.1096,-0.0001179903
308.2096,-0.0001179149
308.3096,-0.0001179017
308.4096,-0.0001178405
308.5096,-0.000117752
308.6096,-0.0001177379
308.7096,-0.0001176945
308.8096,-0.0001176418
308.9096,-0.0001176154
309.0096,-0.0001175467
309.1096,-0.0001174808
309.2097,-0.0001174535
309.3097,-0.0001174026
309.4097,-0.0001173395
309.5097,-0.0001172981
309.6097,-0.0001172689
309.7097,-0.0001172227
309.8097,-0.0001171681
309.9097,-0.0001170937
310.0097,-0.0001170787
310.1097,-0.0001170316
310.2097,-0.0001169949
310.3097,-0.0001169214
310.4097,-0.0001168621
310.5097,-0.0001168536
310.6097,-0.0001167886
310.7097,-0.0001167604
310.8098,-0.0001167029
310.9098,-0.0001166511
311.0098,-0.000116588
311.1098,-0.0001165202
311.2098,-0.0001164844
311.3098,-0.0001164533
311.4098,-0.0001164044
311.5098,-0.0001163535
311.6098,-0.0001163253
311.7098,-0.0001162452
311.8098,-0.0001162047
311.9098,-0.0001161633
312.0098,-0.0001161219
312.1098,-0.0001160644
312.2098,-0.0001160164
312.3098,-0.000115958
312.4099,-0.0001158902
312.5099,-0.0001158732
312.6099,-0.0001158356
312.7099,-0.0001157584
312.8099,-0.0001157169
312.9099,-0.0001157131
313.0099,-0.0001156397
313.1099,-0.0001155935
313.2099,-0.0001155417
313.3099,-0.0001154636
313.4099,-0.0001154476
313.5099,-0.0001154174
313.6099,-0.0001153374
313.7099,-0.0001152818
313.8099,-0.0001152941
313.9099,-0.0001152526
314.0099,-0.0001151773
314.11,-0.0001151217
314.21,-0.0001150982
314.31,-0.000115021
314.41,-0.0001150031
314.51,-0.0001149626
314.61,-0.0001149033
314.71,-0.0001148665
314.81,-0.0001147818
314.91,-0.000114779
315.01,-0.0001147055
315.11,-0.0001146556
315.21,-0.000114632
315.31,-0.0001146066
315.41,-0.000114536
315.51,-0.0001144644
315.61,-0.0001144484
315.7101,-0.0001143966
315.8101,-0.0001143589
315.9101,-0.0001143137
316.0101,-0.0001142553
316.1101,-0.0001141781
316.2101,-0.0001142017
316.3101,-0.0001141781
316.4101,-0.0001140905
316.5101,-0.0001140387
316.6101,-0.0001139841
316.7101,-0.0001139869
316.8101,-0.0001139314
316.9101,-0.0001138655
317.0101,-0.0001138174
317.1101,-0.0001138033
317.2101,-0.0001137534
317.3102,-0.0001137129
317.4102,-0.0001136451
317.5102,-0.0001135961
317.6102,-0.0001135688
317.7102,-0.0001135255
317.8102,-0.0001134709
317.9102,-0.0001134257
318.0102,-0.0001133824
318.1102,-0.0001133343
318.2102,-0.0001132797
318.3102,-0.0001132345
318.4102,-0.0001132006
318.5102,-0.0001131893
318.6102,-0.000113098
318.7102,-0.0001130584
318.8102,-0.000113
318.9102,-0.0001130132
319.0103,-0.0001129285
319.1103,-0.0001128851
319.2103,-0.0001128653
319.3103,-0.0001127853
319.4103,-0.0001127797
319.5103,-0.0001127053
319.6103,-0.0001126742
319.7103,-0.0001126403
319.8103,-0.00011258
319.9103,-0.0001125791
320.0103,-0.000112515
320.1103,-0.0001124821
320.2103,-0.0001124369
320.3103,-0.0001123907
320.4103,-0.000112354
320.5103,-0.0001123399
320.6104,-0.0001122523
320.7104,-0.0001122061
320.8104,-0.0001121732
320.9104,-0.0001121091
321.0104,-0.0001120677
321.1104,-0.0001120498
321.2104,-0.0001119933
321.3104,-0.000111933
321.4104,-0.0001118973
321.5104,-0.0001118342
321.6104,-0.0001118426
321.7104,-0.0001117739
321.8104,-0.0001117014
321.9104,-0.000111692
322.0104,-0.0001116402
322.1104,-0.0001115827
322.2104,-0.000111529
322.3105,-0.0001114914
322.4105,-0.0001114584
322.5105,-0.0001114471
322.6105,-0.0001114198
322.7105,-0.0001113058
322.8105,-0.0001112776
322.9105,-0.0001112333
323.0105,-0.0001111947
323.1105,-0.0001111825
323.2105,-0.0001111288
323.3105,-0.0001110403
323.4105,-0.0001110309
323.5105,-0.0001110186
323.6105,-0.0001109414
323.7105,-0.0001108952
323.8105,-0.0001108755
323.9106,-0.0001108293
324.0106,-0.0001108152
324.1106,-0.0001107596
324.2106,-0.0001107003
324.3106,-0.0001106749
324.4106,-0.0001106363
324.5106,-0.0001105817
324.6106,-0.0001105845
324.7106,-0.0001105129
324.8106,-0.0001104206
324.9106,-0.0001104103
325.0106,-0.0001104103
325.1106,-0.0001103208
325.2106,-0.0001102935
325.3106,-0.000110252
325.4106,-0.0001101795
325.5107,-0.0001101654
325.6107,-0.0001101315
325.7107,-0.0001100891
325.8107,-0.000110075
325.9107,-0.0001100449
326.0107,-0.0001099959
326.1107,-0.0001099507
326.2107,-0.0001099055
326.3107,-0.000109848
326.4107,-0.000109832
326.5107,-0.0001097991
326.6107,-0.0001097341
326.7107,-0.0001097181
326.8107,-0.0001096757
326.9107,-0.0001096371
327.0107,-0.0001096088
327.1107,-0.0001095439
327.2108,-0.0001094544
327.3108,-0.0001094676
327.4108,-0.000109444
327.5108,-0.0001093687
327.6108,-0.0001093442
327.7108,-0.0001092868
327.8108,-0.0001092227
327.9108,-0.0001092067
328.0108,-0.0001091662
328.1108,-0.0001090984
328.2108,-0.0001091031
328.3108,-0.0001090278
328.4108,-0.0001089826
328.5108,-0.0001089506
328.6108,-0.0001089054
328.7108,-0.0001088432
328.8109,-0.000108831
328.9109,-0.0001088131
329.0109,-0.0001087104
329.1109,-0.0001086935
329.2109,-0.0001086746
329.3109,-0.0001086068
329.4109,-0.0001086125
329.5109,-0.0001085287
329.6109,-0.0001084637
329.7109,-0.0001084449
329.8109,-0.0001084364
329.9109,-0.0001083818
330.0109,-0.000108345
330.1109,-0.0001083149
330.2109,-0.0001082377
330.3109,-0.0001082123
330.4109,-0.0001081934
330.511,-0.0001081416
330.611,-0.0001081153
330.711,-0.0001080776
330.811,-0.0001079975
330.911,-0.0001079806
331.011,-0.0001079721
331.111,-0.0001078827
331.211,-0.00010786
331.311,-0.0001078167
331.411,-0.000107748
331.511,-0.0001077527
331.611,-0.000107715
331.711,-0.0001076086
331.811,-0.0001076331
331.911,-0.0001076227
332.011,-0.000107505
332.1111,-0.0001075483
332.2111,-0.0001074852
332.3111,-0.0001074193
332.4111,-0.0001074014
332.5111,-0.0001073609
332.6111,-0.0001072988
332.7111,-0.0001072752
332.8111,-0.0001072526
332.9111,-0.0001071811
333.0111,-0.0001071575
333.1111,-0.0001071481
333.2111,-0.0001070925
333.3111,-0.0001070728
333.4111,-0.0001070097
333.5111,-0.0001069758
333.6111,-0.0001069739
333.7112,-0.0001069032
333.8112,-0.0001068289
333.9112,-0.0001068166
334.0112,-0.0001067978
334.1112,-0.000106729
334.2112,-0.0001067309
334.3112,-0.0001067083
334.4112,-0.0001065981
334.5112,-0.0001066207
334.6112,-0.0001065652
334.7112,-0.0001065416
334.8112,-0.0001065124
334.9112,-0.0001064625
335.0112,-0.0001064022
335.1112,-0.0001063674
335.2112,-0.0001063476
335.3112,-0.0001063081
335.4113,-0.000106277
335.5113,-0.0001062035
335.6113,-0.0001061386
335.7113,-0.0001061282
335.8113,-0.000106116
335.9113,-0.0001060171
336.0113,-0.0001060209
336.1113,-0.0001060133
336.2113,-0.0001059125
336.3113,-0.0001058768
336.4113,-0.000105856
336.5113,-0.0001058165
336.6113,-0.0001058024
336.7113,-0.0001057543
336.8113,-0.0001057007
336.9113,-0.0001057261
337.0114,-0.0001056715
337.1114,-0.0001055999
337.2114,-0.0001056121
337.3114,-0.0001056046
337.4114,-0.0001055133
337.5114,-0.0001054728
337.6114,-0.0001054822
337.7114,-0.000105388
337.8114,-0.0001053221
337.9114,-0.000105323
338.0114,-0.0001052995
338.1114,-0.0001052467
338.2114,-0.0001052458
338.3114,-0.0001051356
338.4114,-0.0001050914
338.5114,-0.0001050885
338.6115,-0.0001050386
338.7115,-0.0001049859
338.8115,-0.0001049576
338.9115,-0.0001049275
339.0115,-0.0001048616
339.1115,-0.0001048201
339.2115,-0.0001048088
339.3115,-0.0001047665
339.4115,-0.0001046996
339.5115,-0.000104677
339.6115,-0.0001046356
339.7115,-0.0001045828
339.8115,-0.0001045517
339.9115,-0.0001045131
340.0115,-0.0001044849
340.1115,-0.0001044651
340.2115,-0.0001044105
340.3116,-0.0001043483
340.4116,-0.0001043267
340.5116,-0.0001042664
340.6116,-0.0001042786
340.7116,-0.0001042259
340.8116,-0.0001041703
340.9116,-0.0001041722
341.0116,-0.0001041186
341.1116,-0.0001040649
341.2116,-0.0001040225
341.3116,-0.0001040037
341.4116,-0.0001039613
341.5116,-0.0001039716
341.6116,-0.0001039133
341.7116,-0.0001038436
341.8116,-0.0001038473
341.9117,-0.0001038163
342.0117,-0.0001037296
342.1117,-0.0001037221
342.2117,-0.0001036919
342.3117,-0.0001036741
342.4117,-0.0001036458
342.5117,-0.0001035836
342.6117,-0.0001035196
342.7117,-0.0001035158
342.8117,-0.0001034801
342.9117,-0.0001034104
343.0117,-0.0001033934
343.1117,-0.0001033463
343.2117,-0.0001032851
343.3117,-0.0001032814
343.4117,-0.0001032682
343.5117,-0.0001031834
343.6118,-0.0001031457
343.7118,-0.0001031184
343.8118,-0.000103077
343.9118,-0.0001030723
344.0118,-0.0001030422
344.1118,-0.0001029715
344.2118,-0.0001029339
344.3118,-0.0001029047
344.4118,-0.0001028538
344.5118,-0.0001028482
344.6118,-0.0001028199
344.7118,-0.0001027596
344.8118,-0.0001027286
344.9118,-0.0001026946
345.0118,-0.0001026739
345.1118,-0.0001026269
345.2119,-0.0001026137
345.3119,-0.0001025666
345.4119,-0.0001025346
345.5119,-0.0001025007
345.6119,-0.0001024799
345.7119,-0.0001024677
345.8119,-0.0001024432
345.9119,-0.0001023632
346.0119,-0.0001023792
346.1119,-0.0001023217
346.2119,-0.0001022464
346.3119,-0.0001022549
346.4119,-0.0001022219
346.5119,-0.0001021324
346.6119,-0.00010214
346.7119,-0.0001021268
346.812,-0.0001020251
346.912,-0.0001019949
347.012,-0.0001019968
347.112,-0.0001019149
347.212,-0.000101913
347.312,-0.0001018527
347.412,-0.0001018151
347.512,-0.0001018132
347.612,-0.0001017661
347.712,-0.0001017087
347.812,-0.0001017011
347.912,-0.0001016729
348.012,-0.0001016145
348.112,-0.0001015778
348.212,-0.0001015552
348.312,-0.00010151
348.412,-0.0001014761
348.5121,-0.0001014563
348.6121,-0.0001013791
348.7121,-0.000101364
348.8121,-0.0001013583
348.9121,-0.0001013065
349.0121,-0.0001012698
349.1121,-0.0001012284
349.2121,-0.0001011662
349.3121,-0.0001011851
349.4121,-0.0001011719
349.5121,-0.0001011041
349.6121,-0.0001010739
349.7121,-0.0001010316
349.8121,-0.0001010033
349.9121,-0.0001009685
350.0121,-0.0001009421
350.1122,-0.0001008922
350.2122,-0.0001008517
350.3122,-0.0001008583
350.4122,-0.0001007971
350.5122,-0.0001007481
350.6122,-0.0001007434
350.7122,-0.0001006822
350.8122,-0.000100669
350.9122,-0.0001006285
351.0122,-0.0001005682
351.1122,-0.0001006021
351.2122,-0.0001005776
351.3122,-0.0001004825
351.4122,-0.0001004543
351.5122,-0.0001004411
351.6122,-0.0001003987
351.7122,-0.0001003799
351.8123,-0.0001003384
351.9123,-0.0001002932
352.0123,-0.0001002414
352.1123,-0.0001002414
352.2123,-0.0001001793
352.3123,-0.0001001407
352.4123,-0.0001001313
352.5123,-0.0001000813
352.6123,-0.0001000823
352.7123,-0.0001000041
352.8123,-9.997965E-05
352.9123,-9.994479E-05
353.0123,-9.991467E-05
353.1123,-9.987606E-05
353.2123,-9.985157E-05
353.3123,-9.978659E-05
353.4124,-9.974609E-05
353.5124,-9.974797E-05
353.6124,-9.972726E-05
353.7124,-9.967829E-05
353.8124,-9.961142E-05
353.9124,-9.961613E-05
354.0124,-9.956246E-05
354.1124,-9.955115E-05
354.2124,-9.953044E-05
354.3124,-9.945039E-05
354.4124,-9.941931E-05
354.5124,-9.942779E-05
354.6124,-9.939294E-05
354.7124,-9.934209E-05
354.8124,-9.929218E-05
354.9124,-9.927522E-05
355.0125,-9.928371E-05
355.1125,-9.923473E-05
355.2125,-9.915374E-05
355.3125,-9.912925E-05
355.4125,-9.911042E-05
355.5125,-9.905016E-05
355.6125,-9.90511E-05
355.7125,-9.905016E-05
355.8125,-9.895409E-05
355.9125,-9.896539E-05
356.0125,-9.891643E-05
356.1125,-9.887499E-05
356.2125,-9.884485E-05
356.3125,-9.881378E-05
356.4125,-9.878176E-05
356.5125,-9.877893E-05
356.6125,-9.87262E-05
356.7126,-9.869889E-05
356.8126,-9.867911E-05
356.9126,-9.864426E-05
357.0126,-9.856893E-05
357.1126,-9.856516E-05
357.2126,-9.85661E-05
357.3126,-9.849265E-05
357.4126,-9.842484E-05
357.5126,-9.851525E-05
357.6126,-9.846722E-05
357.7126,-9.840224E-05
357.8126,-9.83561E-05
357.9126,-9.832784E-05
358.0126,-9.826286E-05
358.1126,-9.827417E-05
358.2126,-9.824686E-05
358.3127,-9.819695E-05
358.4127,-9.817905E-05
358.5127,-9.814044E-05
358.6127,-9.810654E-05
358.7127,-9.802273E-05
358.8127,-9.804344E-05
358.9127,-9.799918E-05
359.0127,-9.796151E-05
359.1127,-9.792855E-05
359.2127,-9.788052E-05
359.3127,-9.786451E-05
359.4127,-9.783344E-05
359.5127,-9.778918E-05
359.6127,-9.775715E-05
359.7127,-9.770253E-05
359.8127,-9.769029E-05
359.9128,-9.768277E-05
360.0128,-9.76564E-05
360.1128,-9.760365E-05
360.2128,-9.755279E-05
360.3128,-9.752643E-05
360.4128,-9.746616E-05
360.5128,-9.747463E-05
360.6128,-9.742849E-05
360.7128,-9.739742E-05
360.8128,-9.734467E-05
360.9128,-9.730701E-05
361.0128,-9.729194E-05
361.1128,-9.726558E-05
361.2128,-9.723355E-05
361.3128,-9.718646E-05
361.4128,-9.714597E-05
361.5128,-9.711867E-05
361.6129,-9.709418E-05
361.7129,-9.708665E-05
361.8129,-9.70292E-05
361.9129,-9.699247E-05
362.0129,-9.697929E-05
362.1129,-9.691242E-05
362.2129,-9.690395E-05
362.3129,-9.688605E-05
362.4129,-9.684367E-05
362.5129,-9.681542E-05
362.6129,-9.679E-05
362.7129,-9.673067E-05
362.8129,-9.672879E-05
362.9129,-9.669959E-05
363.0129,-9.66365E-05
363.1129,-9.662614E-05
363.213,-9.660165E-05
363.313,-9.655927E-05
363.413,-9.652349E-05
363.513,-9.648581E-05
363.613,-9.647734E-05
363.713,-9.643025E-05
363.813,-9.639729E-05
363.913,-9.638034E-05
364.013,-9.635681E-05
364.113,-9.634267E-05
364.213,-9.626639E-05
364.313,-9.62598E-05
364.413,-9.626545E-05
364.513,-9.616939E-05
364.613,-9.615904E-05
364.713,-9.615998E-05
364.813,-9.612324E-05
364.9131,-9.608747E-05
365.0131,-9.606298E-05
365.1131,-9.602532E-05
365.2131,-9.599329E-05
365.3131,-9.596787E-05
365.4131,-9.594904E-05
365.5131,-9.591513E-05
365.6131,-9.590948E-05
365.7131,-9.586992E-05
365.8131,-9.580683E-05
365.9131,-9.581248E-05
366.0131,-9.581153E-05
366.1131,-9.574938E-05
366.2131,-9.571831E-05
366.3131,-9.566934E-05
366.4131,-9.564485E-05
366.5132,-9.563543E-05
366.6132,-9.560059E-05
366.7132,-9.555727E-05
366.8132,-9.550642E-05
366.9132,-9.548665E-05
367.0132,-9.544709E-05
367.1132,-9.54226E-05
367.2132,-9.541507E-05
367.3132,-9.535385E-05
367.4132,-9.531713E-05
367.5132,-9.528134E-05
367.6132,-9.527476E-05
367.7132,-9.523614E-05
367.8132,-9.520601E-05
367.9132,-9.517399E-05
368.0132,-9.513726E-05
368.1133,-9.512784E-05
368.2133,-9.5093E-05
368.3133,-9.507228E-05
368.4133,-9.499788E-05
368.5133,-9.497999E-05
368.6133,-9.504215E-05
368.7133,-9.503084E-05
368.8133,-9.49395E-05
368.9133,-9.489241E-05
369.0133,-9.49216E-05
369.1133,-9.487734E-05
369.2133,-9.480765E-05
369.3133,-9.476527E-05
369.4133,-9.473421E-05
369.5133,-9.472383E-05
369.6133,-9.472383E-05
369.7133,-9.464662E-05
369.8134,-9.461836E-05
369.9134,-9.461083E-05
370.0134,-9.457975E-05
370.1134,-9.454585E-05
370.2134,-9.451478E-05
370.3134,-9.446674E-05
370.4134,-9.443096E-05
370.5134,-9.441778E-05
370.6134,-9.438387E-05
370.7134,-9.433396E-05
370.8134,-9.431889E-05
370.9134,-9.42784E-05
371.0134,-9.426239E-05
371.1134,-9.426145E-05
371.2134,-9.420212E-05
371.3134,-9.417387E-05
371.4135,-9.412113E-05
371.5135,-9.4091E-05
371.6135,-9.407499E-05
371.7135,-9.405898E-05
371.8135,-9.403449E-05
371.9135,-9.397893E-05
372.0135,-9.396858E-05
372.1135,-9.39017E-05
372.2135,-9.394033E-05
372.3135,-9.388852E-05
372.4135,-9.384802E-05
372.5135,-9.381506E-05
372.6135,-9.377081E-05
372.7135,-9.374538E-05
372.8135,-9.373314E-05
372.9135,-9.371713E-05
373.0135,-9.365403E-05
373.1136,-9.361166E-05
373.2136,-9.361353E-05
373.3136,-9.359094E-05
373.4136,-9.35608E-05
373.5136,-9.348452E-05
373.6136,-9.346192E-05
373.7136,-9.351465E-05
373.8136,-9.347134E-05
373.9136,-9.338752E-05
374.0136,-9.339788E-05
374.1136,-9.33734E-05
374.2136,-9.331218E-05
374.3136,-9.328393E-05
374.4136,-9.329429E-05
374.5136,-9.325097E-05
374.6136,-9.320954E-05
374.7137,-9.316998E-05
374.8137,-9.312479E-05
374.9137,-9.312761E-05
375.0137,-9.309842E-05
375.1137,-9.304662E-05
375.2137,-9.299576E-05
375.3137,-9.300611E-05
375.4137,-9.295432E-05
375.5137,-9.295904E-05
375.6137,-9.288747E-05
375.7137,-9.288087E-05
375.8137,-9.28997E-05
375.9137,-9.288087E-05
376.0137,-9.277728E-05
376.1137,-9.276033E-05
376.2137,-9.276786E-05
376.3138,-9.2701E-05
376.4138,-9.268499E-05
376.5138,-9.265298E-05
376.6138,-9.259364E-05
376.7138,-9.258611E-05
376.8138,-9.256916E-05
376.9138,-9.253431E-05
377.0138,-9.250324E-05
377.1138,-9.247592E-05
377.2138,-9.240436E-05
377.3138,-9.239117E-05
377.4138,-9.239117E-05
377.5138,-9.234691E-05
377.6138,-9.230265E-05
377.7138,-9.226498E-05
377.8138,-9.222826E-05
377.9138,-9.223296E-05
378.0139,-9.222731E-05
378.1139,-9.216798E-05
378.2139,-9.212843E-05
378.3139,-9.210677E-05
378.4139,-9.207381E-05
378.5139,-9.207286E-05
378.6139,-9.203332E-05
378.7139,-9.19947E-05
378.8139,-9.195986E-05
378.9139,-9.194478E-05
379.0139,-9.192313E-05
379.1139,-9.190712E-05
379.2139,-9.185909E-05
379.3139,-9.18073E-05
379.4139,-9.179035E-05
379.5139,-9.178281E-05
379.614,-9.176492E-05
379.714,-9.173007E-05
379.814,-9.167357E-05
379.914,-9.164721E-05
380.014,-9.163214E-05
380.114,-9.159635E-05
380.214,-9.157374E-05
380.314,-9.153137E-05
380.414,-9.151818E-05
380.514,-9.149558E-05
380.614,-9.147111E-05
380.714,-9.145038E-05
380.814,-9.141082E-05
380.914,-9.138258E-05
381.014,-9.134585E-05
381.114,-9.13176E-05
381.2141,-9.131007E-05
381.3141,-9.127334E-05
381.4141,-9.123472E-05
381.5141,-9.124603E-05
381.6141,-9.120271E-05
381.7141,-9.114244E-05
381.8141,-9.113114E-05
381.9141,-9.111606E-05
382.0141,-9.109252E-05
382.1141,-9.110383E-05
382.2141,-9.104449E-05
382.3141,-9.09814E-05
382.4141,-9.096822E-05
382.5141,-9.094938E-05
382.6141,-9.092018E-05
382.7141,-9.090323E-05
382.8141,-9.087216E-05
382.9142,-9.08213E-05
383.0142,-9.084108E-05
383.1142,-9.082601E-05
383.2142,-9.073749E-05
383.3142,-9.069699E-05
383.4142,-9.073184E-05
383.5142,-9.068569E-05
383.6142,-9.06405E-05
383.7142,-9.062447E-05
383.8142,-9.061883E-05
383.9142,-9.056515E-05
384.0142,-9.054255E-05
384.1142,-9.049547E-05
384.2142,-9.050205E-05
384.3142,-9.045497E-05
384.4142,-9.040506E-05
384.5143,-9.042766E-05
384.6143,-9.042483E-05
384.7143,-9.035138E-05
384.8143,-9.030711E-05
384.9143,-9.032784E-05
385.0143,-9.029864E-05
385.1143,-9.023461E-05
385.2143,-9.021483E-05
385.3143,-9.021012E-05
385.4143,-9.015079E-05
385.5143,-9.014608E-05
385.6143,-9.012819E-05
385.7143,-9.008675E-05
385.8143,-9.006321E-05
385.9143,-9.001801E-05
386.0143,-8.998129E-05
386.1143,-9.002649E-05
386.2144,-9.003779E-05
386.3144,-8.99389E-05
386.4144,-8.993607E-05
386.5144,-8.990312E-05
386.6144,-8.985602E-05
386.7144,-8.983719E-05
386.8144,-8.980047E-05
386.9144,-8.97628E-05
387.0144,-8.977034E-05
387.1144,-8.972324E-05
387.2144,-8.964979E-05
387.3144,-8.965356E-05
387.4144,-8.963943E-05
387.5144,-8.959987E-05
387.6144,-8.958198E-05
387.7144,-8.958292E-05
387.8145,-8.952925E-05
387.9145,-8.949816E-05
388.0145,-8.947463E-05
388.1145,-8.945768E-05
388.2145,-8.944449E-05
388.3145,-8.939458E-05
388.4145,-8.934749E-05
388.5145,-8.933996E-05
388.6145,-8.933242E-05
388.7145,-8.927592E-05
388.8145,-8.926086E-05
388.9145,-8.923072E-05
389.0145,-8.918363E-05
389.1145,-8.917233E-05
389.2145,-8.915256E-05
389.3145,-8.910076E-05
389.4146,-8.908099E-05
389.5146,-8.903578E-05
389.6146,-8.902637E-05
389.7146,-8.902071E-05
389.8146,-8.898681E-05
389.9146,-8.893407E-05
390.0146,-8.895009E-05
390.1146,-8.890205E-05
390.2146,-8.890959E-05
390.3146,-8.882012E-05
390.4146,-8.881918E-05
390.5146,-8.879658E-05
390.6146,-8.87655E-05
390.7146,-8.87448E-05
390.8146,-8.869111E-05
390.9146,-8.868169E-05
391.0146,-8.864967E-05
391.1147,-8.861294E-05
391.2147,-8.861671E-05
391.3147,-8.857528E-05
391.4147,-8.854231E-05
391.5147,-8.8499E-05
391.6147,-8.848016E-05
391.7147,-8.844437E-05
391.8147,-8.844061E-05
391.9147,-8.839634E-05
392.0147,-8.83615E-05
392.1147,-8.833419E-05
392.2147,-8.835303E-05
392.3147,-8.830406E-05
392.4147,-8.827769E-05
392.5147,-8.824002E-05
392.6147,-8.821931E-05
392.7148,-8.821365E-05
392.8148,-8.817504E-05
392.9148,-8.815244E-05
393.0148,-8.811948E-05
393.1148,-8.811006E-05
393.2148,-8.806391E-05
393.3148,-8.803566E-05
393.4148,-8.803096E-05
393.5148,-8.802342E-05
393.6148,-8.799988E-05
393.7148,-8.796316E-05
393.8148,-8.790288E-05
393.9148,-8.788593E-05
394.0148,-8.793113E-05
394.1148,-8.785485E-05
394.2148,-8.781907E-05
394.3148,-8.781153E-05
394.4149,-8.776915E-05
394.5149,-8.771736E-05
394.6149,-8.774656E-05
394.7149,-8.772583E-05
394.8149,-8.767121E-05
394.9149,-8.765615E-05
395.0149,-8.762884E-05
395.1149,-8.760059E-05
395.2149,-8.756669E-05
395.3149,-8.758834E-05
395.4149,-8.753089E-05
395.5149,-8.752148E-05
395.6149,-8.747533E-05
395.7149,-8.745273E-05
395.8149,-8.745368E-05
395.9149,-8.743107E-05
396.015,-8.738399E-05
396.115,-8.735761E-05
396.215,-8.735291E-05
396.315,-8.728888E-05
396.415,-8.729829E-05
396.515,-8.727098E-05
396.615,-8.723331E-05
396.715,-8.721636E-05
396.815,-8.718528E-05
396.915,-8.716456E-05
397.015,-8.713348E-05
397.115,-8.709676E-05
397.215,-8.706569E-05
397.315,-8.707133E-05
397.415,-8.704308E-05
397.515,-8.698469E-05
397.6151,-8.700448E-05
397.7151,-8.695832E-05
397.8151,-8.692913E-05
397.9151,-8.691217E-05
398.0151,-8.68858E-05
398.1151,-8.685661E-05
398.2151,-8.683496E-05
398.3151,-8.680954E-05
398.4151,-8.678599E-05
398.5151,-8.679069E-05
398.6151,-8.67775E-05
398.7151,-8.670312E-05
398.8151,-8.671912E-05
398.9151,-8.669464E-05
399.0151,-8.665697E-05
399.1151,-8.661271E-05
399.2151,-8.661648E-05
399.3152,-8.655809E-05
399.4152,-8.655055E-05
399.5152,-8.653172E-05
399.6152,-8.648558E-05
399.7152,-8.649122E-05
399.8152,-8.644979E-05
399.9152,-8.642342E-05
400.0152,-8.639517E-05
400.1152,-8.637727E-05
400.2152,-8.636503E-05
400.3152,-8.632548E-05
400.4152,-8.629535E-05
400.5152,-8.628216E-05
400.6152,-8.625579E-05
400.7152,-8.622189E-05
400.8152,-8.617668E-05
400.9153,-8.620117E-05
401.0153,-8.617009E-05
401.1153,-8.612488E-05
401.2153,-8.610982E-05
401.3153,-8.607875E-05
401.4153,-8.60279E-05
401.5153,-8.600624E-05
401.6153,-8.600435E-05
401.7153,-8.597421E-05
401.8153,-8.597139E-05
401.9153,-8.592807E-05
402.0153,-8.587344E-05
402.1153,-8.589039E-05
402.2153,-8.589793E-05
402.3153,-8.586497E-05
402.4153,-8.580471E-05
402.5154,-8.578586E-05
402.6154,-8.574444E-05
402.7154,-8.574066E-05
402.8154,-8.572559E-05
402.9154,-8.56785E-05
403.0154,-8.563143E-05
403.1154,-8.568039E-05
403.2154,-8.565591E-05
403.3154,-8.559941E-05
403.4154,-8.558528E-05
403.5154,-8.556832E-05
403.6154,-8.554573E-05
403.7154,-8.55269E-05
403.8154,-8.548074E-05
403.9154,-8.542424E-05
404.0154,-8.547886E-05
404.1154,-8.54911E-05
404.2155,-8.540069E-05
404.3155,-8.536868E-05
404.4155,-8.538469E-05
404.5155,-8.531217E-05
404.6155,-8.532159E-05
404.7155,-8.526603E-05
404.8155,-8.522271E-05
404.9155,-8.521424E-05
405.0155,-8.520576E-05
405.1155,-8.515585E-05
405.2155,-8.512478E-05
405.3155,-8.513419E-05
405.4155,-8.509087E-05
405.5155,-8.505226E-05
405.6155,-8.503625E-05
405.7155,-8.499105E-05
405.8156,-8.499763E-05
405.9156,-8.497315E-05
406.0156,-8.491853E-05
406.1156,-8.492701E-05
406.2156,-8.490441E-05
406.3156,-8.483189E-05
406.4156,-8.483095E-05
406.5156,-8.485638E-05
406.6156,-8.477633E-05
406.7156,-8.473207E-05
406.8156,-8.480364E-05
406.9156,-8.475467E-05
407.0156,-8.46991E-05
407.1156,-8.468027E-05
407.2156,-8.468781E-05
407.3156,-8.46445E-05
407.4156,-8.463978E-05
407.5157,-8.458704E-05
407.6157,-8.456255E-05
407.7157,-8.457951E-05
407.8157,-8.452018E-05
407.9157,-8.447592E-05
408.0157,-8.449757E-05
408.1157,-8.450228E-05
408.2157,-8.441094E-05
408.3157,-8.440058E-05
408.4157,-8.441282E-05
408.5157,-8.437327E-05
408.6157,-8.435631E-05
408.7157,-8.430547E-05
408.8157,-8.431206E-05
408.9157,-8.424613E-05
409.0157,-8.421412E-05
409.1158,-8.428852E-05
409.2158,-8.427156E-05
409.3158,-8.419717E-05
409.4158,-8.414631E-05
409.5158,-8.41529E-05
409.6158,-8.41077E-05
409.7158,-8.409923E-05
409.8158,-8.409358E-05
409.9158,-8.402389E-05
410.0158,-8.400976E-05
410.1158,-8.401259E-05
410.2158,-8.394101E-05
410.3158,-8.392407E-05
410.4158,-8.392124E-05
410.5158,-8.393254E-05
410.6158,-8.386474E-05
410.7159,-8.384307E-05
410.8159,-8.382894E-05
410.9159,-8.378845E-05
411.0159,-8.378093E-05
411.1159,-8.379787E-05
411.2159,-8.373289E-05
411.3159,-8.371971E-05
411.4159,-8.369146E-05
411.5159,-8.365473E-05
411.6159,-8.366037E-05
411.7159,-8.36472E-05
411.8159,-8.358881E-05
411.9159,-8.356809E-05
412.0159,-8.357185E-05
412.1159,-8.351818E-05
412.2159,-8.353419E-05
412.3159,-8.349558E-05
412.416,-8.345414E-05
412.516,-8.345037E-05
412.616,-8.343907E-05
412.716,-8.339198E-05
412.816,-8.337503E-05
412.916,-8.336562E-05
413.016,-8.333454E-05
413.116,-8.330252E-05
413.216,-8.329499E-05
413.316,-8.324319E-05
413.416,-8.32705E-05
413.516,-8.323378E-05
413.616,-8.318292E-05
413.716,-8.318952E-05
413.816,-8.315749E-05
413.916,-8.313301E-05
414.0161,-8.312547E-05
414.1161,-8.311323E-05
414.2161,-8.304449E-05
414.3161,-8.307462E-05
414.4161,-8.303789E-05
414.5161,-8.299364E-05
414.6161,-8.301059E-05
414.7161,-8.301435E-05
414.8161,-8.292394E-05
414.9161,-8.292959E-05
415.0161,-8.293243E-05
415.1161,-8.290134E-05
415.2161,-8.287968E-05
415.3161,-8.286178E-05
415.4161,-8.285897E-05
415.5161,-8.283825E-05
415.6161,-8.276574E-05
415.7162,-8.276667E-05
415.8162,-8.27855E-05
415.9162,-8.273183E-05
416.0162,-8.270358E-05
416.1162,-8.266968E-05
416.2162,-8.266685E-05
416.3162,-8.267156E-05
416.4162,-8.264802E-05
416.5162,-8.260093E-05
416.6162,-8.256609E-05
416.7162,-8.257268E-05
416.8162,-8.257927E-05
416.9162,-8.253312E-05
417.0162,-8.250111E-05
417.1162,-8.248227E-05
417.2162,-8.244178E-05
417.3163,-8.24493E-05
417.4163,-8.2422E-05
417.5163,-8.238339E-05
417.6163,-8.237586E-05
417.7163,-8.233631E-05
417.8163,-8.231087E-05
417.9163,-8.229581E-05
418.0163,-8.229957E-05
418.1163,-8.226756E-05
418.2163,-8.225531E-05
418.3163,-8.227415E-05
418.4163,-8.219786E-05
418.5163,-8.216397E-05
418.6163,-8.217998E-05
418.7163,-8.216397E-05
418.8163,-8.212724E-05
418.9164,-8.208016E-05
419.0164,-8.208109E-05
419.1164,-8.207074E-05
419.2164,-8.203118E-05
419.3164,-8.197562E-05
419.4164,-8.196149E-05
419.5164,-8.196996E-05
419.6164,-8.194926E-05
419.7164,-8.194454E-05
419.8164,-8.192948E-05
419.9164,-8.18645E-05
420.0164,-8.186544E-05
420.1164,-8.183908E-05
420.2164,-8.179669E-05
420.3164,-8.180988E-05
420.4164,-8.177315E-05
420.5164,-8.173266E-05
420.6165,-8.172041E-05
420.7165,-8.173266E-05
420.8165,-8.167709E-05
420.9165,-8.162718E-05
421.0165,-8.164225E-05
421.1165,-8.162624E-05
421.2165,-8.162812E-05
421.3165,-8.15914E-05
421.4165,-8.157538E-05
421.5165,-8.151794E-05
421.6165,-8.150288E-05
421.7165,-8.1517E-05
421.8165,-8.150476E-05
421.9165,-8.144919E-05
422.0165,-8.141436E-05
422.1165,-8.141717E-05
422.2166,-8.14153E-05
422.3166,-8.138704E-05
422.4166,-8.133525E-05
422.5166,-8.13343E-05
422.6166,-8.129945E-05
422.7166,-8.130039E-05
422.8166,-8.128722E-05
422.9166,-8.12147E-05
423.0166,-8.12147E-05
423.1166,-8.123166E-05
423.2166,-8.117891E-05
423.3166,-8.118739E-05
423.4166,-8.114031E-05
423.5166,-8.108851E-05
423.6166,-8.109133E-05
423.7166,-8.109887E-05
423.8167,-8.107815E-05
423.9167,-8.102259E-05
424.0167,-8.103954E-05
424.1167,-8.100941E-05
424.2167,-8.100469E-05
424.3167,-8.098962E-05
424.4167,-8.091053E-05
424.5167,-8.092465E-05
424.6167,-8.091994E-05
424.7167,-8.086155E-05
424.8167,-8.087285E-05
424.9167,-8.083895E-05
425.0167,-8.084648E-05
425.1167,-8.081823E-05
425.2167,-8.079657E-05
425.3167,-8.078998E-05
425.4167,-8.074196E-05
425.5168,-8.075419E-05
425.6168,-8.074666E-05
425.7168,-8.072123E-05
425.8168,-8.067509E-05
425.9168,-8.064684E-05
426.0168,-8.064119E-05
426.1168,-8.065437E-05
426.2168,-8.061294E-05
426.3168,-8.058845E-05
426.4168,-8.056303E-05
426.5168,-8.052818E-05
426.6168,-8.051123E-05
426.7168,-8.051405E-05
426.8168,-8.048015E-05
426.9168,-8.047732E-05
427.0168,-8.045755E-05
427.1169,-8.041423E-05
427.2169,-8.040199E-05
427.3169,-8.039257E-05
427.4169,-8.035867E-05
427.5169,-8.035867E-05
427.6169,-8.036055E-05
427.7169,-8.034171E-05
427.8169,-8.028992E-05
427.9169,-8.033324E-05
428.0169,-8.029181E-05
428.1169,-8.023907E-05
428.2169,-8.025602E-05
428.3169,-8.024002E-05
428.4169,-8.019104E-05
428.5169,-8.017127E-05
428.6169,-8.012041E-05
428.7169,-8.01044E-05
428.817,-8.017127E-05
428.917,-8.01675E-05
429.017,-8.005449E-05
429.117,-8.00592E-05
429.217,-8.009027E-05
429.317,-8.00253E-05
429.417,-7.999893E-05
429.517,-7.998857E-05
429.617,-7.993112E-05
429.717,-7.994618E-05
429.817,-7.993395E-05
429.917,-7.988027E-05
430.017,-7.98426E-05
430.117,-7.98652E-05
430.217,-7.982847E-05
430.317,-7.980399E-05
430.4171,-7.979081E-05
430.5171,-7.97277E-05
430.6171,-7.974278E-05
430.7171,-7.974278E-05
430.8171,-7.969757E-05
430.9171,-7.967968E-05
431.0171,-7.967214E-05
431.1171,-7.966178E-05
431.2171,-7.962883E-05
431.3171,-7.957421E-05
431.4171,-7.956856E-05
431.5171,-7.957892E-05
431.6171,-7.954784E-05
431.7171,-7.952053E-05
431.8171,-7.950829E-05
431.9171,-7.946684E-05
432.0172,-7.94791E-05
432.1172,-7.94612E-05
432.2172,-7.941882E-05
432.3172,-7.93868E-05
432.4172,-7.93868E-05
432.5172,-7.936514E-05
432.6172,-7.932747E-05
432.7172,-7.935667E-05
432.8172,-7.931052E-05
432.9172,-7.930299E-05
433.0172,-7.926344E-05
433.1172,-7.924272E-05
433.2172,-7.925119E-05
433.3172,-7.921069E-05
433.4172,-7.91881E-05
433.5172,-7.915231E-05
433.6172,-7.915702E-05
433.7173,-7.91702E-05
433.8173,-7.909768E-05
433.9173,-7.910146E-05
434.0173,-7.907132E-05
434.1173,-7.90233E-05
434.2173,-7.904401E-05
434.3173,-7.901387E-05
434.4173,-7.89131E-05
434.5173,-7.894419E-05
434.6173,-7.892818E-05
434.7173,-7.883777E-05
434.8173,-7.887356E-05
434.9173,-7.887638E-05
435.0173,-7.881987E-05
435.1173,-7.880104E-05
435.2173,-7.874642E-05
435.3174,-7.87144E-05
435.4174,-7.869651E-05
435.5174,-7.869651E-05
435.6174,-7.864284E-05
435.7174,-7.862964E-05
435.8174,-7.858068E-05
435.9174,-7.852606E-05
436.0174,-7.853925E-05
436.1174,-7.851287E-05
436.2174,-7.847427E-05
436.3174,-7.844601E-05
436.4174,-7.841211E-05
436.5174,-7.840363E-05
436.6174,-7.839045E-05
436.7174,-7.836409E-05
436.8174,-7.83283E-05
436.9174,-7.83217E-05
437.0175,-7.829157E-05
437.1175,-7.824166E-05
437.2175,-7.824355E-05
437.3175,-7.822E-05
437.4175,-7.818986E-05
437.5175,-7.816632E-05
437.6175,-7.814371E-05
437.7175,-7.809192E-05
437.8175,-7.813995E-05
437.9175,-7.808062E-05
438.0175,-7.803071E-05
438.1175,-7.804106E-05
438.2175,-7.802223E-05
438.3175,-7.798267E-05
438.4175,-7.794501E-05
438.5175,-7.794313E-05
438.6176,-7.789604E-05
438.7176,-7.789886E-05
438.8176,-7.787626E-05
438.9176,-7.782259E-05
439.0176,-7.782824E-05
439.1176,-7.781505E-05
439.2176,-7.776985E-05
439.3176,-7.77529E-05
439.4176,-7.77416E-05
439.5176,-7.771335E-05
439.6176,-7.771805E-05
439.7176,-7.768039E-05
439.8176,-7.762105E-05
439.9176,-7.766909E-05
440.0176,-7.76333E-05
440.1176,-7.757303E-05
440.2177,-7.759564E-05
440.3177,-7.761353E-05
440.4177,-7.752312E-05
440.5177,-7.749581E-05
440.6177,-7.752406E-05
440.7177,-7.748356E-05
440.8177,-7.749016E-05
440.9177,-7.745813E-05
441.0177,-7.746379E-05
441.1177,-7.741858E-05
441.2177,-7.741858E-05
441.3177,-7.737715E-05
441.4177,-7.737715E-05
441.5177,-7.734513E-05
441.6177,-7.732818E-05
441.7177,-7.732535E-05
441.8177,-7.732629E-05
441.9178,-7.726132E-05
442.0178,-7.727638E-05
442.1178,-7.724154E-05
442.2178,-7.721988E-05
442.3178,-7.723871E-05
442.4178,-7.720198E-05
442.5178,-7.717373E-05
442.6178,-7.722176E-05
442.7178,-7.717656E-05
442.8178,-7.712665E-05
442.9178,-7.712947E-05
443.0178,-7.710687E-05
443.1178,-7.707956E-05
443.2178,-7.712006E-05
443.3178,-7.709086E-05
443.4178,-7.701929E-05
443.5179,-7.704565E-05
443.6179,-7.705319E-05
443.7179,-7.700422E-05
443.8179,-7.701929E-05
443.9179,-7.699386E-05
444.0179,-7.69383E-05
444.1179,-7.696184E-05
444.2179,-7.69562E-05
444.3179,-7.692512E-05
444.4179,-7.690346E-05
444.5179,-7.690158E-05
444.6179,-7.685449E-05
444.7179,-7.686579E-05
444.8179,-7.68639E-05
444.9179,-7.681494E-05
445.0179,-7.68008E-05
445.118,-7.683849E-05
445.218,-7.680457E-05
445.318,-7.675373E-05
445.418,-7.676784E-05
445.518,-7.674524E-05
445.618,-7.675373E-05
445.718,-7.671981E-05
445.818,-7.669911E-05
445.918,-7.671228E-05
446.018,-7.668215E-05
446.118,-7.6636E-05
446.218,-7.665672E-05
446.318,-7.666991E-05
446.418,-7.661717E-05
446.518,-7.659175E-05
446.618,-7.659363E-05
446.718,-7.657291E-05
446.8181,-7.657102E-05
446.9181,-7.653335E-05
447.0181,-7.65277E-05
447.1181,-7.653241E-05
447.2181,-7.653713E-05
447.3181,-7.648344E-05
447.4181,-7.649003E-05
447.5181,-7.648439E-05
447.6181,-7.6426E-05
447.7181,-7.641281E-05
447.8181,-7.645425E-05
447.9181,-7.644107E-05
448.0181,-7.636855E-05
448.1181,-7.638173E-05
448.2181,-7.637985E-05
448.3181,-7.636291E-05
448.4182,-7.635255E-05
448.5182,-7.630922E-05
448.6182,-7.630263E-05
448.7182,-7.632994E-05
448.8182,-7.628003E-05
448.9182,-7.626684E-05
449.0182,-7.623577E-05
449.1182,-7.627155E-05
449.2182,-7.624613E-05
449.3182,-7.621034E-05
449.4182,-7.619245E-05
449.5182,-7.622918E-05
449.6182,-7.619434E-05
449.7182,-7.615195E-05
449.8182,-7.613972E-05
449.9182,-7.615383E-05
450.0182,-7.612747E-05
450.1183,-7.61011E-05
450.2183,-7.609922E-05
450.3183,-7.609263E-05
450.4183,-7.607567E-05
450.5183,-7.605872E-05
450.6183,-7.602105E-05
450.7183,-7.608415E-05
450.8183,-7.608321E-05
450.9183,-7.602105E-05
451.0183,-7.599657E-05
451.1183,-7.598527E-05
451.2183,-7.597397E-05
451.3183,-7.597679E-05
451.4183,-7.596173E-05
451.5183,-7.5925E-05
451.6183,-7.589204E-05
451.7184,-7.591182E-05
451.8184,-7.588639E-05
451.9184,-7.585814E-05
452.0184,-7.583177E-05
452.1184,-7.586191E-05
452.2184,-7.586567E-05
452.3184,-7.579692E-05
452.4184,-7.579881E-05
452.5184,-7.579504E-05
452.6184,-7.580257E-05
452.7184,-7.576866E-05
452.8184,-7.574607E-05
452.9184,-7.571405E-05
453.0184,-7.569239E-05
453.1184,-7.569993E-05
453.2184,-7.570181E-05
453.3185,-7.567638E-05
453.4185,-7.5634E-05
453.5185,-7.563024E-05
453.6185,-7.562552E-05
453.7185,-7.558409E-05
453.8185,-7.560293E-05
453.9185,-7.557562E-05
454.0185,-7.556243E-05
454.1185,-7.553794E-05
454.2185,-7.551064E-05
454.3185,-7.549839E-05
454.4185,-7.549369E-05
454.5185,-7.547296E-05
454.6185,-7.546073E-05
454.7185,-7.545978E-05
454.8185,-7.54287E-05
454.9185,-7.540517E-05
455.0186,-7.539009E-05
455.1186,-7.535337E-05
455.2186,-7.532888E-05
455.3186,-7.534018E-05
455.4186,-7.534207E-05
455.5186,-7.528932E-05
455.6186,-7.526861E-05
455.7186,-7.52639E-05
455.8186,-7.523754E-05
455.9186,-7.520174E-05
456.0186,-7.52074E-05
456.1186,-7.516125E-05
456.2186,-7.51669E-05
456.3186,-7.516878E-05
456.4186,-7.513394E-05
456.5186,-7.512547E-05
456.6187,-7.50878E-05
456.7187,-7.511417E-05
456.8187,-7.512264E-05
456.9187,-7.510004E-05
457.0187,-7.50313E-05
457.1187,-7.502564E-05
457.2187,-7.504919E-05
457.3187,-7.500116E-05
457.4187,-7.49908E-05
457.5187,-7.496914E-05
457.6187,-7.490887E-05
457.7187,-7.49004E-05
457.8187,-7.48872E-05
457.9187,-7.489286E-05
458.0187,-7.485802E-05
458.1187,-7.487309E-05
458.2188,-7.484201E-05
458.3188,-7.481564E-05
458.4188,-7.481941E-05
458.5188,-7.477326E-05
458.6188,-7.476385E-05
458.7188,-7.475066E-05
458.8188,-7.47224E-05
458.9188,-7.472052E-05
459.0188,-7.47356E-05
459.1188,-7.469039E-05
459.2188,-7.464895E-05
459.3188,-7.46499E-05
459.4188,-7.463388E-05
459.5188,-7.46433E-05
459.6188,-7.459339E-05
459.7188,-7.455477E-05
459.8188,-7.45576E-05
459.9189,-7.455383E-05
460.0189,-7.453501E-05
460.1189,-7.451052E-05
460.2189,-7.44851E-05
460.3189,-7.445966E-05
460.4189,-7.445872E-05
460.5189,-7.445213E-05
460.6189,-7.446061E-05
460.7189,-7.43928E-05
460.8189,-7.438527E-05
460.9189,-7.437209E-05
461.0189,-7.437961E-05
461.1189,-7.433064E-05
461.2189,-7.429768E-05
461.3189,-7.434477E-05
461.4189,-7.431558E-05
461.519,-7.424966E-05
461.619,-7.425626E-05
461.719,-7.423553E-05
461.819,-7.423553E-05
461.919,-7.421763E-05
462.019,-7.418939E-05
462.119,-7.416772E-05
462.219,-7.42054E-05
462.319,-7.416207E-05
462.419,-7.4131E-05
462.519,-7.412158E-05
462.619,-7.412158E-05
462.719,-7.408862E-05
462.819,-7.407261E-05
462.919,-7.406414E-05
463.019,-7.402364E-05
463.119,-7.402834E-05
463.2191,-7.400857E-05
463.3191,-7.393606E-05
463.4191,-7.397656E-05
463.5191,-7.39662E-05
463.6191,-7.389745E-05
463.7191,-7.390216E-05
463.8191,-7.39031E-05
463.9191,-7.390122E-05
464.0191,-7.386355E-05
464.1191,-7.385036E-05
464.2191,-7.382117E-05
464.3191,-7.382682E-05
464.4191,-7.380045E-05
464.5191,-7.375619E-05
464.6191,-7.377502E-05
464.7191,-7.374112E-05
464.8192,-7.373076E-05
464.9192,-7.373076E-05
465.0192,-7.36865E-05
465.1192,-7.364601E-05
465.2192,-7.367708E-05
465.3192,-7.366767E-05
465.4192,-7.360456E-05
465.5192,-7.361681E-05
465.6192,-7.361587E-05
465.7192,-7.359045E-05
465.8192,-7.358669E-05
465.9192,-7.357538E-05
466.0192,-7.352453E-05
466.1192,-7.354148E-05
466.2192,-7.354242E-05
466.3192,-7.349062E-05
466.4193,-7.349627E-05
466.5193,-7.344731E-05
466.6193,-7.349722E-05
466.7193,-7.349438E-05
466.8193,-7.344825E-05
466.9193,-7.340492E-05
467.0193,-7.340586E-05
467.1193,-7.343223E-05
467.2193,-7.338892E-05
467.3193,-7.338044E-05
467.4193,-7.334936E-05
467.5193,-7.330416E-05
467.6193,-7.331358E-05
467.7193,-7.333335E-05
467.8193,-7.327308E-05
467.9193,-7.328438E-05
468.0193,-7.32825E-05
468.1194,-7.322035E-05
468.2194,-7.325237E-05
468.3194,-7.325142E-05
468.4194,-7.322599E-05
468.5194,-7.320528E-05
468.6194,-7.319869E-05
468.7194,-7.314783E-05
468.8194,-7.317797E-05
468.9194,-7.318173E-05
469.0194,-7.313936E-05
469.1194,-7.311393E-05
469.2194,-7.312146E-05
469.3194,-7.312429E-05
469.4194,-7.312334E-05
469.5194,-7.308002E-05
469.6194,-7.304613E-05
469.7195,-7.305178E-05
469.8195,-7.301881E-05
469.9195,-7.299245E-05
470.0195,-7.298208E-05
470.1195,-7.29802E-05
470.2195,-7.290863E-05
470.3195,-7.296325E-05
470.4195,-7.294818E-05
470.5195,-7.285872E-05
470.6195,-7.287661E-05
470.7195,-7.285213E-05
470.8195,-7.280127E-05
470.9195,-7.28333E-05
471.0195,-7.2822E-05
471.1195,-7.276738E-05
471.2195,-7.275608E-05
471.3195,-7.274665E-05
471.4196,-7.27184E-05
471.5196,-7.272029E-05
471.6196,-7.271369E-05
471.7196,-7.266473E-05
471.8196,-7.266473E-05
471.9196,-7.266661E-05
472.0196,-7.261858E-05
472.1196,-7.262328E-05
472.2196,-7.261952E-05
472.3196,-7.255831E-05
472.4196,-7.257055E-05
472.5196,-7.255642E-05
472.6196,-7.251781E-05
472.7196,-7.251311E-05
472.8196,-7.250933E-05
472.9196,-7.245001E-05
473.0197,-7.249521E-05
473.1197,-7.24632E-05
473.2197,-7.243777E-05
473.3197,-7.242364E-05
473.4197,-7.239162E-05
473.5197,-7.239444E-05
473.6197,-7.238314E-05
473.7197,-7.235583E-05
473.8197,-7.237373E-05
473.9197,-7.232665E-05
474.0197,-7.236148E-05
474.1197,-7.22918E-05
474.2197,-7.229651E-05
474.3197,-7.230027E-05
474.4197,-7.223624E-05
474.5197,-7.225036E-05
474.6198,-7.22287E-05
474.7198,-7.220986E-05
474.8198,-7.220139E-05
474.9198,-7.218256E-05
475.0198,-7.214112E-05
475.1198,-7.216749E-05
475.2198,-7.215054E-05
475.3198,-7.211098E-05
475.4198,-7.210345E-05
475.5198,-7.209404E-05
475.6198,-7.206202E-05
475.7198,-7.208556E-05
475.8198,-7.205825E-05
475.9198,-7.202811E-05
476.0198,-7.20234E-05
476.1198,-7.20234E-05
476.2198,-7.198856E-05
476.3199,-7.199797E-05
476.4199,-7.198762E-05
476.5199,-7.19622E-05
476.6199,-7.196596E-05
476.7199,-7.194618E-05
476.8199,-7.192264E-05
476.9199,-7.188309E-05
477.0199,-7.191322E-05
477.1199,-7.189628E-05
477.2199,-7.185201E-05
477.3199,-7.184072E-05
477.4199,-7.183035E-05
477.5199,-7.179738E-05
477.6199,-7.184166E-05
477.7199,-7.181057E-05
477.8199,-7.177479E-05
477.92,-7.176537E-05
478.02,-7.172865E-05
478.12,-7.176537E-05
478.22,-7.172299E-05
478.32,-7.169286E-05
478.42,-7.169474E-05
478.52,-7.168156E-05
478.62,-7.171357E-05
478.72,-7.169098E-05
478.82,-7.163447E-05
478.92,-7.162882E-05
479.02,-7.16147E-05
479.12,-7.159304E-05
479.22,-7.159492E-05
479.32,-7.16081E-05
479.42,-7.156761E-05
479.5201,-7.152146E-05
479.6201,-7.157138E-05
479.7201,-7.153653E-05
479.8201,-7.149133E-05
479.9201,-7.151769E-05
480.0201,-7.149886E-05
480.1201,-7.145742E-05
480.2201,-7.144235E-05
480.3201,-7.145271E-05
480.4201,-7.1432E-05
480.5201,-7.140939E-05
480.6201,-7.138868E-05
480.7201,-7.134442E-05
480.8201,-7.136042E-05
480.9201,-7.138114E-05
481.0201,-7.136231E-05
481.1201,-7.129733E-05
481.2202,-7.134253E-05
481.3202,-7.131146E-05
481.4202,-7.12559E-05
481.5202,-7.125401E-05
481.6202,-7.125213E-05
481.7202,-7.123988E-05
481.8202,-7.12333E-05
481.9202,-7.12154E-05
482.0202,-7.116737E-05
482.1202,-7.115606E-05
482.2202,-7.118149E-05
482.3202,-7.1141E-05
482.4202,-7.112217E-05
482.5202,-7.113535E-05
482.6202,-7.107978E-05
482.7202,-7.112499E-05
482.8203,-7.109863E-05
482.9203,-7.105813E-05
483.0203,-7.10619E-05
483.1203,-7.107602E-05
483.2203,-7.102706E-05
483.3203,-7.100822E-05
483.4203,-7.099881E-05
483.5203,-7.096866E-05
483.6203,-7.099409E-05
483.7203,-7.100351E-05
483.8203,-7.090745E-05
483.9203,-7.091875E-05
484.0203,-7.091781E-05
484.1203,-7.085848E-05
484.2203,-7.088485E-05
484.3203,-7.086695E-05
484.4203,-7.083589E-05
484.5204,-7.083118E-05
484.6204,-7.081234E-05
484.7204,-7.080293E-05
484.8204,-7.080386E-05
484.9204,-7.075395E-05
485.0204,-7.073323E-05
485.1204,-7.073794E-05
485.2204,-7.073418E-05
485.3204,-7.069933E-05
485.4204,-7.069839E-05
485.5204,-7.066825E-05
485.6204,-7.067485E-05
485.7204,-7.068992E-05
485.8204,-7.06513E-05
485.9204,-7.059385E-05
486.0204,-7.060704E-05
486.1205,-7.058444E-05
486.2205,-7.056748E-05
486.3205,-7.055995E-05
486.4205,-7.05496E-05
486.5205,-7.049874E-05
486.6205,-7.048556E-05
486.7205,-7.048932E-05
486.8205,-7.048179E-05
486.9205,-7.051381E-05
487.0205,-7.048179E-05
487.1205,-7.043659E-05
487.2205,-7.043471E-05
487.3205,-7.04187E-05
487.4205,-7.039421E-05
487.5205,-7.04121E-05
487.6205,-7.037631E-05
487.7206,-7.031604E-05
487.8206,-7.032829E-05
487.9206,-7.034429E-05
488.0206,-7.029062E-05
488.1206,-7.032923E-05
488.2206,-7.030945E-05
488.3206,-7.02586E-05
488.4206,-7.023694E-05
488.5206,-7.023411E-05
488.6206,-7.020492E-05
488.7206,-7.021058E-05
488.8206,-7.019833E-05
488.9206,-7.017855E-05
489.0206,-7.015972E-05
489.1206,-7.015878E-05
489.2206,-7.014276E-05
489.3206,-7.013994E-05
489.4207,-7.011263E-05
489.5207,-7.004671E-05
489.6207,-7.007214E-05
489.7207,-7.007026E-05
489.8207,-7.004012E-05
489.9207,-7.001564E-05
490.0207,-7.001658E-05
490.1207,-6.999022E-05
490.2207,-6.999022E-05
490.3207,-6.996007E-05
490.4207,-6.995253E-05
490.5207,-6.993371E-05
490.6207,-6.994312E-05
490.7207,-6.993182E-05
490.8207,-6.990546E-05
490.9207,-6.987438E-05
491.0208,-6.985836E-05
491.1208,-6.98254E-05
491.2208,-6.986025E-05
491.3208,-6.984235E-05
491.4208,-6.977738E-05
491.5208,-6.97736E-05
491.6208,-6.975383E-05
491.7208,-6.970581E-05
491.8208,-6.969451E-05
491.9208,-6.969262E-05
492.0208,-6.970674E-05
492.1208,-6.970203E-05
492.2208,-6.964176E-05
492.3208,-6.962011E-05
492.4208,-6.966342E-05
492.5208,-6.964176E-05
492.6208,-6.959939E-05
492.7209,-6.960316E-05
492.8209,-6.956549E-05
492.9209,-6.953911E-05
493.0209,-6.95363E-05
493.1209,-6.954665E-05
493.2209,-6.951651E-05
493.3209,-6.949485E-05
493.4209,-6.94779E-05
493.5209,-6.9444E-05
493.6209,-6.944212E-05
493.7209,-6.945342E-05
493.8209,-6.941293E-05
493.9209,-6.939032E-05
494.0209,-6.938844E-05
494.1209,-6.936395E-05
494.2209,-6.935265E-05
494.321,-6.933382E-05
494.421,-6.929521E-05
494.521,-6.929897E-05
494.621,-6.931311E-05
494.721,-6.927826E-05
494.821,-6.926884E-05
494.921,-6.926131E-05
495.021,-6.924435E-05
495.121,-6.923776E-05
495.221,-6.920481E-05
495.321,-6.917844E-05
495.421,-6.916807E-05
495.521,-6.916054E-05
495.621,-6.916242E-05
495.721,-6.916713E-05
495.821,-6.913417E-05
495.9211,-6.910968E-05
496.0211,-6.911251E-05
496.1211,-6.907767E-05
496.2211,-6.904659E-05
496.3211,-6.90739E-05
496.4211,-6.904754E-05
496.5211,-6.900986E-05
496.6211,-6.901928E-05
496.7211,-6.900327E-05
496.8211,-6.895619E-05
496.9211,-6.896089E-05
497.0211,-6.893735E-05
497.1211,-6.889592E-05
497.2211,-6.888837E-05
497.3211,-6.891663E-05
497.4211,-6.886672E-05
497.5211,-6.886012E-05
497.6212,-6.885731E-05
497.7212,-6.882905E-05
497.8212,-6.881587E-05
497.9212,-6.884506E-05
498.0212,-6.879703E-05
498.1212,-6.879892E-05
498.2212,-6.880268E-05
498.3212,-6.877255E-05
498.4212,-6.87264E-05
498.5212,-6.871228E-05
498.6212,-6.871604E-05
498.7212,-6.869533E-05
498.8212,-6.868214E-05
498.9212,-6.865859E-05
499.0212,-6.864259E-05
499.1212,-6.863977E-05
499.2213,-6.861999E-05
499.3213,-6.863882E-05
499.4213,-6.859362E-05
499.5213,-6.858891E-05
499.6213,-6.858326E-05
499.7213,-6.856819E-05
499.8213,-6.854747E-05
499.9213,-6.853147E-05
500.0213,-6.853617E-05
500.1213,-6.849191E-05
500.2213,-6.849945E-05
500.3213,-6.851169E-05
500.4213,-6.843917E-05
500.5213,-6.845519E-05
500.6213,-6.846365E-05
500.7213,-6.84081E-05
500.8214,-6.839868E-05
500.9214,-6.839585E-05
501.0214,-6.839774E-05
501.1214,-6.837984E-05
501.2214,-6.834971E-05
501.3214,-6.834312E-05
501.4214,-6.833371E-05
501.5214,-6.832051E-05
501.6214,-6.829321E-05
501.7214,-6.828567E-05
501.8214,-6.82772E-05
501.9214,-6.822823E-05
502.0214,-6.826307E-05
502.1214,-6.820469E-05
502.2214,-6.819056E-05
502.3214,-6.824329E-05
502.4214,-6.822257E-05
502.5215,-6.815195E-05
502.6215,-6.813594E-05
502.7215,-6.815759E-05
502.8215,-6.812558E-05
502.9215,-6.8135E-05
503.0215,-6.812369E-05
503.1215,-6.806154E-05
503.2215,-6.807002E-05
503.3215,-6.808509E-05
503.4215,-6.805872E-05
503.5215,-6.803706E-05
503.6215,-6.802387E-05
503.7215,-6.803988E-05
503.8215,-6.800033E-05
503.9215,-6.797772E-05
504.0215,-6.797396E-05
504.1216,-6.797679E-05
504.2216,-6.79928E-05
504.3216,-6.791746E-05
504.4216,-6.793535E-05
504.5216,-6.798714E-05
504.6216,-6.794006E-05
504.7216,-6.787696E-05
504.8216,-6.788167E-05
504.9216,-6.789203E-05
505.0216,-6.784117E-05
505.1216,-6.783553E-05
505.2216,-6.780821E-05
505.3216,-6.777432E-05
505.4216,-6.778655E-05
505.5216,-6.776301E-05
505.6216,-6.773664E-05
505.7216,-6.772723E-05
505.8217,-6.773382E-05
505.9217,-6.772816E-05
506.0217,-6.771405E-05
506.1217,-6.769144E-05
506.2217,-6.765094E-05
506.3217,-6.764906E-05
506.4217,-6.763494E-05
506.5217,-6.76161E-05
506.6217,-6.761987E-05
506.7217,-6.761328E-05
506.8217,-6.754736E-05
506.9217,-6.756619E-05
507.0217,-6.757561E-05
507.1217,-6.754642E-05
507.2217,-6.756431E-05
507.3217,-6.752004E-05
507.4218,-6.748897E-05
507.5218,-6.750874E-05
507.6218,-6.747955E-05
507.7218,-6.744659E-05
507.8218,-6.744282E-05
507.9218,-6.740327E-05
508.0218,-6.736843E-05
508.1218,-6.73882E-05
508.2218,-6.740139E-05
508.3218,-6.734677E-05
508.4218,-6.73656E-05
508.5218,-6.73364E-05
508.6218,-6.728273E-05
508.7218,-6.728743E-05
508.8218,-6.728838E-05
508.9218,-6.724882E-05
509.0219,-6.723847E-05
509.1219,-6.723752E-05
509.2219,-6.718856E-05
509.3219,-6.719703E-05
509.4219,-6.72008E-05
509.5219,-6.715747E-05
509.6219,-6.713581E-05
509.7219,-6.71556E-05
509.8219,-6.71217E-05
509.9219,-6.710192E-05
510.0219,-6.710285E-05
510.1219,-6.708779E-05
510.2219,-6.708025E-05
510.3219,-6.70407E-05
510.4219,-6.704165E-05
510.5219,-6.70407E-05
510.6219,-6.70181E-05
510.722,-6.699833E-05
510.822,-6.701904E-05
510.922,-6.699833E-05
511.022,-6.694371E-05
511.122,-6.692487E-05
511.222,-6.691922E-05
511.322,-6.687873E-05
511.422,-6.690039E-05
511.522,-6.688437E-05
511.622,-6.684106E-05
511.722,-6.683164E-05
511.822,-6.682316E-05
511.922,-6.680244E-05
512.022,-6.677137E-05
512.122,-6.676289E-05
512.222,-6.675537E-05
512.322,-6.673747E-05
512.4219,-6.673652E-05
512.5219,-6.670827E-05
512.6219,-6.667249E-05
512.7219,-6.668943E-05
512.8218,-6.666777E-05
512.9218,-6.665271E-05
513.0218,-6.663387E-05
513.1218,-6.663952E-05
513.2217,-6.664707E-05
513.3217,-6.66207E-05
513.4217,-6.65849E-05
513.5217,-6.65915E-05
513.6216,-6.660185E-05
513.7216,-6.655006E-05
513.8216,-6.651899E-05
513.9216,-6.656325E-05
514.0215,-6.653311E-05
514.1215,-6.646248E-05
514.2215,-6.650393E-05
514.3215,-6.649733E-05
514.4214,-6.645966E-05
514.5214,-6.648884E-05
514.6214,-6.642858E-05
514.7214,-6.641257E-05
514.8214,-6.645589E-05
514.9213,-6.641162E-05
515.0213,-6.641727E-05
515.1213,-6.639562E-05
515.2213,-6.637678E-05
515.3212,-6.635136E-05
515.4212,-6.635324E-05
515.5212,-6.634947E-05
515.6212,-6.630521E-05
515.7211,-6.631651E-05
515.8211,-6.63118E-05
515.9211,-6.630144E-05
516.0211,-6.633252E-05
516.121,-6.62845E-05
516.221,-6.626754E-05
516.321,-6.626189E-05
516.421,-6.624588E-05
516.5209,-6.623552E-05
516.6209,-6.62327E-05
516.7209,-6.618561E-05
516.8209,-6.617054E-05
516.9208,-6.61762E-05
517.0208,-6.619879E-05
517.1208,-6.613664E-05
517.2208,-6.612817E-05
517.3207,-6.611592E-05
517.4207,-6.609991E-05
517.5207,-6.613005E-05
517.6207,-6.610744E-05
517.7206,-6.605189E-05
517.8206,-6.606225E-05
517.9206,-6.608202E-05
518.0206,-6.606413E-05
518.1205,-6.604624E-05
518.2205,-6.601139E-05
518.3205,-6.600386E-05
518.4205,-6.600669E-05
518.5204,-6.600198E-05
518.6204,-6.597749E-05
518.7204,-6.597184E-05
518.8204,-6.595865E-05
518.9203,-6.593699E-05
519.0203,-6.593793E-05
519.1203,-6.591817E-05
519.2203,-6.588237E-05
519.3203,-6.590498E-05
519.4202,-6.590215E-05
519.5202,-6.587955E-05
519.6202,-6.585506E-05
519.7202,-6.584847E-05
519.8201,-6.582964E-05
519.9201,-6.584941E-05
520.0201,-6.584188E-05
520.1201,-6.576278E-05
520.22,-6.577691E-05
520.32,-6.57995E-05
520.42,-6.58061E-05
520.52,-6.584E-05
520.6199,-6.575994E-05
520.7199,-6.576371E-05
520.8199,-6.575618E-05
520.9199,-6.57543E-05
521.0198,-6.571286E-05
521.1198,-6.573546E-05
521.2198,-6.570533E-05
521.3198,-6.566483E-05
521.4197,-6.566389E-05
521.5197,-6.566202E-05
521.6197,-6.564317E-05
521.7197,-6.564317E-05
521.8196,-6.560362E-05
521.9196,-6.558478E-05
522.0196,-6.560739E-05
522.1196,-6.560645E-05
522.2195,-6.554335E-05
522.3195,-6.554052E-05
522.4195,-6.557442E-05
522.5195,-6.556125E-05
522.6194,-6.556219E-05
522.7194,-6.550756E-05
522.8194,-6.550191E-05
522.9194,-6.549909E-05
523.0193,-6.550569E-05
523.1193,-6.545483E-05
523.2193,-6.545859E-05
523.3193,-6.5452E-05
523.4193,-6.542752E-05
523.5192,-6.543317E-05
523.6192,-6.541245E-05
523.7192,-6.539832E-05
523.8192,-6.541622E-05
523.9191,-6.544635E-05
524.0191,-6.535783E-05
524.1191,-6.535972E-05
524.2191,-6.535972E-05
524.319,-6.531733E-05
524.419,-6.533711E-05
524.519,-6.534182E-05
524.619,-6.529473E-05
524.7189,-6.525047E-05
524.8189,-6.526648E-05
524.9189,-6.52533E-05
525.0189,-6.525894E-05
525.1188,-6.523635E-05
525.2188,-6.522693E-05
525.3188,-6.518644E-05
525.4188,-6.52194E-05
525.5187,-6.517042E-05
525.6187,-6.515535E-05
525.7187,-6.518549E-05
525.8187,-6.513087E-05
525.9186,-6.512805E-05
526.0186,-6.512146E-05
526.1186,-6.511016E-05
526.2186,-6.510357E-05
526.3185,-6.508755E-05
526.4185,-6.506683E-05
526.5185,-6.505553E-05
526.6185,-6.506401E-05
526.7184,-6.504801E-05
526.8184,-6.504235E-05
526.9184,-6.502352E-05
527.0184,-6.499809E-05
527.1183,-6.50254E-05
527.2183,-6.499809E-05
527.3183,-6.49915E-05
527.4183,-6.495288E-05
527.5182,-6.493123E-05
527.6182,-6.494911E-05
527.7182,-6.490486E-05
527.8182,-6.493123E-05
527.9182,-6.490768E-05
528.0181,-6.489168E-05
528.1181,-6.48832E-05
528.2181,-6.486059E-05
528.3181,-6.485965E-05
528.418,-6.484458E-05
528.518,-6.481163E-05
528.618,-6.480503E-05
528.718,-6.482858E-05
528.8179,-6.482763E-05
528.9179,-6.476737E-05
529.0179,-6.478713E-05
529.1179,-6.478243E-05
529.2178,-6.477301E-05
529.3178,-6.478337E-05
529.4178,-6.474571E-05
529.5178,-6.470804E-05
529.6177,-6.471934E-05
529.7177,-6.473723E-05
529.8177,-6.47005E-05
529.9177,-6.468073E-05
530.0176,-6.47071E-05
530.1176,-6.465906E-05
530.2176,-6.462987E-05
530.3176,-6.463646E-05
530.4175,-6.461763E-05
530.5175,-6.463364E-05
530.6175,-6.46261E-05
530.7175,-6.455359E-05
530.8174,-6.456961E-05
530.9174,-6.458654E-05
531.0174,-6.456488E-05
531.1174,-6.455077E-05
531.2173,-6.453005E-05
531.3173,-6.448391E-05
531.4173,-6.448956E-05
531.5173,-6.451028E-05
531.6172,-6.447731E-05
531.7172,-6.446506E-05
531.8172,-6.446225E-05
531.9172,-6.443305E-05
532.0172,-6.443211E-05
532.1171,-6.444811E-05
532.2171,-6.439068E-05
532.3171,-6.440197E-05
532.4171,-6.443493E-05
532.517,-6.440668E-05
532.617,-6.440009E-05
532.717,-6.437466E-05
532.817,-6.433699E-05
532.9169,-6.432569E-05
533.0169,-6.436148E-05
533.1169,-6.434547E-05
533.2169,-6.433793E-05
533.3168,-6.432004E-05
533.4168,-6.432004E-05
533.5168,-6.430497E-05
533.6168,-6.428426E-05
533.7167,-6.427766E-05
533.8167,-6.425695E-05
533.9167,-6.424941E-05
534.0167,-6.419385E-05
534.1166,-6.419761E-05
534.2166,-6.421269E-05
534.3166,-6.415712E-05
534.4166,-6.415995E-05
534.5165,-6.411663E-05
534.6165,-6.408743E-05
534.7165,-6.408743E-05
534.8165,-6.410062E-05
534.9164,-6.405447E-05
535.0164,-6.404882E-05
535.1164,-6.40686E-05
535.2164,-6.401209E-05
535.3163,-6.401116E-05
535.4163,-6.405258E-05
535.5163,-6.400927E-05
535.6163,-6.399138E-05
535.7162,-6.396313E-05
535.8162,-6.396218E-05
535.9162,-6.397726E-05
536.0162,-6.394806E-05
536.1161,-6.392263E-05
536.2161,-6.3933E-05
536.3161,-6.39151E-05
536.4161,-6.387178E-05
536.5161,-6.391792E-05
536.616,-6.39085E-05
536.716,-6.384635E-05
536.816,-6.385671E-05
536.916,-6.383788E-05
537.0159,-6.382658E-05
537.1159,-6.38407E-05
537.2159,-6.38407E-05
537.3159,-6.380209E-05
537.4158,-6.377949E-05
537.5158,-6.38002E-05
537.6158,-6.37776E-05
537.7158,-6.375594E-05
537.8157,-6.378043E-05
537.9157,-6.372769E-05
538.0157,-6.375501E-05
538.1157,-6.373711E-05
538.2156,-6.368437E-05
538.3156,-6.367872E-05
538.4156,-6.368155E-05
538.5156,-6.369662E-05
538.6155,-6.367402E-05
538.7155,-6.367685E-05
538.8155,-6.367119E-05
538.9155,-6.362222E-05
539.0154,-6.368625E-05
539.1154,-6.366742E-05
539.2154,-6.360244E-05
539.3154,-6.364012E-05
539.4153,-6.363164E-05
539.5153,-6.357137E-05
539.6153,-6.35902E-05
539.7153,-6.357701E-05
539.8152,-6.355347E-05
539.9152,-6.355724E-05
540.0152,-6.354688E-05
540.1152,-6.353934E-05
540.2151,-6.352804E-05
540.3151,-6.351486E-05
540.4151,-6.346966E-05
540.5151,-6.351298E-05
540.6151,-6.351015E-05
540.715,-6.346966E-05
540.815,-6.347249E-05
540.915,-6.347532E-05
541.015,-6.344517E-05
541.1149,-6.34207E-05
541.2149,-6.340939E-05
541.3149,-6.339809E-05
541.4149,-6.341221E-05
541.5148,-6.340656E-05
541.6148,-6.335571E-05
541.7148,-6.337171E-05
541.8148,-6.335948E-05
541.9147,-6.332558E-05
542.0147,-6.336607E-05
542.1147,-6.3351E-05
542.2147,-6.328132E-05
542.3146,-6.331333E-05
542.4146,-6.330674E-05
542.5146,-6.327849E-05
542.6146,-6.325306E-05
542.7145,-6.327095E-05
542.8145,-6.324647E-05
542.9145,-6.325589E-05
543.0145,-6.323517E-05
543.1144,-6.321728E-05
543.2144,-6.319279E-05
543.3144,-6.316266E-05
543.4144,-6.31749E-05
543.5143,-6.319938E-05
543.6143,-6.315418E-05
543.7143,-6.316642E-05
543.8143,-6.317584E-05
543.9142,-6.315512E-05
544.0142,-6.30892E-05
544.1142,-6.31231E-05
544.2142,-6.311556E-05
544.3141,-6.30779E-05
544.4141,-6.306E-05
544.5141,-6.308826E-05
544.6141,-6.306095E-05
544.7141,-6.305436E-05
544.814,-6.306471E-05
544.914,-6.301292E-05
545.014,-6.298843E-05
545.114,-6.301857E-05
545.2139,-6.298561E-05
545.3139,-6.297432E-05
545.4139,-6.30035E-05
545.5139,-6.294229E-05
545.6138,-6.293947E-05
545.7138,-6.293098E-05
545.8138,-6.288578E-05
545.9138,-6.286883E-05
546.0137,-6.28679E-05
546.1137,-6.28566E-05
546.2137,-6.283964E-05
546.3137,-6.285094E-05
546.4136,-6.283494E-05
546.5136,-6.279443E-05
546.6136,-6.280574E-05
546.7136,-6.279066E-05
546.8135,-6.276996E-05
546.9135,-6.278784E-05
547.0135,-6.27483E-05
547.1135,-6.270591E-05
547.2134,-6.276336E-05
547.3134,-6.276713E-05
547.4134,-6.271722E-05
547.5134,-6.268614E-05
547.6133,-6.270685E-05
547.7133,-6.269744E-05
547.8133,-6.268331E-05
547.9133,-6.267672E-05
548.0132,-6.263717E-05
548.1132,-6.263435E-05
548.2132,-6.261362E-05
548.3132,-6.258255E-05
548.4131,-6.261362E-05
548.5131,-6.262209E-05
548.6131,-6.257313E-05
548.7131,-6.256653E-05
548.813,-6.257219E-05
548.913,-6.253829E-05
549.013,-6.255806E-05
549.113,-6.254205E-05
549.213,-6.248931E-05
549.3129,-6.250721E-05
549.4129,-6.253452E-05
549.5129,-6.250156E-05
549.6129,-6.244976E-05
549.7128,-6.246389E-05
549.8128,-6.247519E-05
549.9128,-6.245635E-05
550.0128,-6.244317E-05
550.1127,-6.246201E-05
550.2127,-6.243658E-05
550.3127,-6.24008E-05
550.4127,-6.23603E-05
550.5126,-6.237725E-05
550.6126,-6.239043E-05
550.7126,-6.232451E-05
550.8126,-6.234994E-05
550.9125,-6.23782E-05
551.0125,-6.233299E-05
551.1125,-6.229438E-05
551.2125,-6.235182E-05
551.3124,-6.234523E-05
551.4124,-6.231415E-05
551.5124,-6.227178E-05
551.6124,-6.228119E-05
551.7123,-6.226142E-05
551.8123,-6.225483E-05
551.9123,-6.221903E-05
552.0123,-6.223693E-05
552.1122,-6.221621E-05
552.2122,-6.218514E-05
552.3122,-6.215688E-05
552.4122,-6.220209E-05
552.5121,-6.219456E-05
552.6121,-6.215688E-05
552.7121,-6.211922E-05
552.8121,-6.212298E-05
552.912,-6.209379E-05
553.012,-6.209285E-05
553.112,-6.207966E-05
553.212,-6.208626E-05
553.312,-6.20646E-05
553.4119,-6.202975E-05
553.5119,-6.202222E-05
553.6119,-6.20128E-05
553.7119,-6.201751E-05
553.8118,-6.201657E-05
553.9118,-6.199867E-05
554.0118,-6.195065E-05
554.1118,-6.195724E-05
554.2117,-6.198267E-05
554.3117,-6.194971E-05
554.4117,-6.195442E-05
554.5117,-6.194029E-05
554.6116,-6.194971E-05
554.7116,-6.194029E-05
554.8116,-6.193934E-05
554.9116,-6.186871E-05
555.0115,-6.189226E-05
555.1115,-6.189979E-05
555.2115,-6.186965E-05
555.3115,-6.18141E-05
555.4114,-6.186871E-05
555.5114,-6.188755E-05
555.6114,-6.183387E-05
555.7114,-6.182069E-05
555.8113,-6.183104E-05
555.9113,-6.178678E-05
556.0113,-6.179432E-05
556.1113,-6.174441E-05
556.2112,-6.174441E-05
556.3112,-6.174064E-05
556.4112,-6.172557E-05
556.5112,-6.168697E-05
556.6111,-6.167378E-05
556.7111,-6.165683E-05
556.8111,-6.164458E-05
556.9111,-6.162575E-05
557.011,-6.162763E-05
557.111,-6.163234E-05
557.211,-6.160785E-05
557.311,-6.158619E-05
557.4109,-6.159185E-05
557.5109,-6.158902E-05
557.6109,-6.15683E-05
557.7109,-6.154005E-05
557.8109,-6.154193E-05
557.9108,-6.154759E-05
558.0108,-6.154099E-05
558.1108,-6.152687E-05
558.2108,-6.149297E-05
558.3107,-6.147601E-05
558.4107,-6.149297E-05
558.5107,-6.147507E-05
558.6107,-6.146095E-05
558.7106,-6.146095E-05
558.8106,-6.142045E-05
558.9106,-6.140444E-05
559.0106,-6.142892E-05
559.1105,-6.141009E-05
559.2105,-6.140915E-05
559.3105,-6.136018E-05
559.4105,-6.1363E-05
559.5104,-6.136395E-05
559.6104,-6.136206E-05
559.7104,-6.134134E-05
559.8104,-6.130933E-05
559.9103,-6.133287E-05
560.0103,-6.130744E-05
560.1103,-6.126695E-05
560.2103,-6.130839E-05
560.3102,-6.13178E-05
560.4102,-6.126601E-05
560.5102,-6.129331E-05
560.6102,-6.126412E-05
560.7101,-6.12274E-05
560.8101,-6.126977E-05
560.9101,-6.123399E-05
561.0101,-6.121421E-05
561.11,-6.120573E-05
561.21,-6.122175E-05
561.31,-6.118784E-05
561.41,-6.116995E-05
561.5099,-6.118502E-05
561.6099,-6.116712E-05
561.7099,-6.1153E-05
561.8099,-6.11304E-05
561.9099,-6.111156E-05
562.0098,-6.112851E-05
562.1098,-6.109744E-05
562.2098,-6.10673E-05
562.3098,-6.10852E-05
562.4097,-6.106636E-05
562.5097,-6.105129E-05
562.6097,-6.103811E-05
562.7097,-6.103811E-05
562.8096,-6.09995E-05
562.9096,-6.100326E-05
563.0096,-6.101457E-05
563.1096,-6.099102E-05
563.2095,-6.100892E-05
563.3095,-6.099008E-05
563.4095,-6.093452E-05
563.5095,-6.0943E-05
563.6094,-6.094488E-05
563.7094,-6.093169E-05
563.8094,-6.091757E-05
563.9094,-6.092416E-05
564.0093,-6.088084E-05
564.1093,-6.086483E-05
564.2093,-6.088178E-05
564.3093,-6.084599E-05
564.4092,-6.087707E-05
564.5092,-6.084882E-05
564.6092,-6.080644E-05
564.7092,-6.081492E-05
564.8091,-6.080832E-05
564.9091,-6.079514E-05
565.0091,-6.079703E-05
565.1091,-6.078855E-05
565.209,-6.074052E-05
565.309,-6.076971E-05
565.409,-6.076877E-05
565.509,-6.072169E-05
565.6089,-6.075935E-05
565.7089,-6.073204E-05
565.8089,-6.070662E-05
565.9089,-6.073581E-05
566.0089,-6.073393E-05
566.1088,-6.065105E-05
566.2088,-6.06746E-05
566.3088,-6.067743E-05
566.4088,-6.066612E-05
566.5087,-6.066518E-05
566.6087,-6.063975E-05
566.7087,-6.060303E-05
566.8087,-6.063505E-05
566.9086,-6.06341E-05
567.0086,-6.057195E-05
567.1086,-6.057948E-05
567.2086,-6.059549E-05
567.3085,-6.059549E-05
567.4085,-6.057948E-05
567.5085,-6.054652E-05
567.6085,-6.055406E-05
567.7084,-6.055123E-05
567.8084,-6.054558E-05
567.9084,-6.050509E-05
568.0084,-6.049473E-05
568.1083,-6.050697E-05
568.2083,-6.046836E-05
568.3083,-6.045518E-05
568.4083,-6.047495E-05
568.5082,-6.042692E-05
568.6082,-6.043728E-05
568.7082,-6.045047E-05
568.8082,-6.039773E-05
568.9081,-6.040809E-05
569.0081,-6.040715E-05
569.1081,-6.040903E-05
569.2081,-6.03497E-05
569.308,-6.0361E-05
569.408,-6.03723E-05
569.508,-6.035159E-05
569.608,-6.033652E-05
569.7079,-6.032239E-05
569.8079,-6.032051E-05
569.9079,-6.031768E-05
570.0079,-6.030827E-05
570.1078,-6.030167E-05
570.2078,-6.027342E-05
570.3078,-6.025082E-05
570.4078,-6.026965E-05
570.5078,-6.025365E-05
570.6077,-6.024329E-05
570.7077,-6.021504E-05
570.8077,-6.021409E-05
570.9077,-6.017548E-05
571.0076,-6.020467E-05
571.1076,-6.020939E-05
571.2076,-6.015665E-05
571.3076,-6.014817E-05
571.4075,-6.015665E-05
571.5075,-6.014252E-05
571.6075,-6.012275E-05
571.7075,-6.012557E-05
571.8074,-6.0151E-05
571.9074,-6.011333E-05
572.0074,-6.008225E-05
572.1074,-6.005965E-05
572.2073,-6.011992E-05
572.3073,-6.011144E-05
572.4073,-6.007001E-05
572.5073,-6.005117E-05
572.6072,-6.004458E-05
572.7072,-6.003987E-05
572.8072,-6.002481E-05
572.9072,-6.001915E-05
573.0071,-6.000315E-05
573.1071,-5.997677E-05
573.2071,-5.998996E-05
573.3071,-6.00201E-05
573.407,-5.996454E-05
573.507,-5.992969E-05
573.607,-5.993251E-05
573.707,-5.991556E-05
573.8069,-5.99457E-05
573.9069,-5.991839E-05
574.0069,-5.988825E-05
574.1069,-5.989673E-05
574.2068,-5.991745E-05
574.3068,-5.985718E-05
574.4068,-5.985247E-05
574.5068,-5.98939E-05
574.6068,-5.985529E-05
574.7067,-5.982327E-05
574.8067,-5.98487E-05
574.9067,-5.984117E-05
575.0067,-5.982798E-05
575.1066,-5.978372E-05
575.2066,-5.977619E-05
575.3066,-5.978184E-05
575.4066,-5.977242E-05
575.5065,-5.973005E-05
575.6065,-5.973381E-05
575.7065,-5.973287E-05
575.8065,-5.97291E-05
575.9064,-5.974135E-05
576.0064,-5.972816E-05
576.1064,-5.966224E-05
576.2064,-5.967731E-05
576.3063,-5.970179E-05
576.4063,-5.967448E-05
576.5063,-5.964717E-05
576.6063,-5.96547E-05
576.7062,-5.964906E-05
576.8062,-5.965094E-05
576.9062,-5.964717E-05
577.0062,-5.958502E-05
577.1061,-5.960197E-05
577.2061,-5.961421E-05
577.3061,-5.960291E-05
577.4061,-5.960102E-05
577.506,-5.957937E-05
577.606,-5.953134E-05
577.706,-5.955205E-05
577.806,-5.956524E-05
577.9059,-5.952757E-05
578.0059,-5.952192E-05
578.1059,-5.952381E-05
578.2059,-5.952569E-05
578.3058,-5.949838E-05
578.4058,-5.948048E-05
578.5058,-5.946824E-05
578.6058,-5.949084E-05
578.7057,-5.949179E-05
578.8057,-5.945694E-05
578.9057,-5.947483E-05
579.0057,-5.945317E-05
579.1057,-5.942586E-05
579.2056,-5.941833E-05
579.3056,-5.941739E-05
579.4056,-5.94042E-05
579.5056,-5.941927E-05
579.6055,-5.941362E-05
579.7055,-5.936559E-05
579.8055,-5.9359E-05
579.9055,-5.936277E-05
580.0054,-5.93364E-05
580.1054,-5.934676E-05
580.2054,-5.935429E-05
580.3054,-5.928555E-05
580.4053,-5.927895E-05
580.5053,-5.934111E-05
580.6053,-5.935523E-05
580.7053,-5.928743E-05
580.8052,-5.926577E-05
580.9052,-5.929214E-05
581.0052,-5.924223E-05
581.1052,-5.926954E-05
581.2051,-5.925447E-05
581.3051,-5.922528E-05
581.4051,-5.920455E-05
581.5051,-5.920927E-05
581.605,-5.921209E-05
581.705,-5.921586E-05
581.805,-5.918761E-05
581.905,-5.915088E-05
582.0049,-5.916594E-05
582.1049,-5.917066E-05
582.2049,-5.915464E-05
582.3049,-5.915935E-05
582.4048,-5.913298E-05
582.5048,-5.912262E-05
582.6048,-5.910191E-05
582.7048,-5.908778E-05
582.8047,-5.909626E-05
582.9047,-5.909061E-05
583.0047,-5.908308E-05
583.1047,-5.904352E-05
583.2047,-5.907648E-05
583.3046,-5.906895E-05
583.4046,-5.903222E-05
583.5046,-5.90454E-05
583.6046,-5.903787E-05
583.7045,-5.898702E-05
583.8045,-5.900585E-05
583.9045,-5.900114E-05
584.0045,-5.895971E-05
584.1044,-5.896536E-05
584.2044,-5.897289E-05
584.3044,-5.89776E-05
584.4044,-5.893899E-05
584.5043,-5.89371E-05
584.6043,-5.892675E-05
584.7043,-5.893428E-05
584.8043,-5.894181E-05
584.9042,-5.889755E-05
585.0042,-5.887872E-05
585.1042,-5.889944E-05
585.2042,-5.889849E-05
585.3041,-5.886836E-05
585.4041,-5.883916E-05
585.5041,-5.884576E-05
585.6041,-5.883728E-05
585.704,-5.885235E-05
585.804,-5.879396E-05
585.904,-5.881374E-05
586.004,-5.88241E-05
586.1039,-5.880809E-05
586.2039,-5.881563E-05
586.3039,-5.87723E-05
586.4039,-5.877983E-05
586.5038,-5.881751E-05
586.6038,-5.878266E-05
586.7038,-5.872427E-05
586.8038,-5.873464E-05
586.9037,-5.873275E-05
587.0037,-5.871297E-05
587.1037,-5.872804E-05
587.2037,-5.872804E-05
587.3036,-5.86932E-05
587.4036,-5.866683E-05
587.5036,-5.868095E-05
587.6036,-5.865835E-05
587.7036,-5.866306E-05
587.8035,-5.865364E-05
587.9035,-5.861975E-05
588.0035,-5.863481E-05
588.1035,-5.86414E-05
588.2034,-5.861409E-05
588.3034,-5.865553E-05
588.4034,-5.861597E-05
588.5034,-5.85962E-05
588.6033,-5.859149E-05
588.7033,-5.859902E-05
588.8033,-5.856889E-05
588.9033,-5.855853E-05
589.0032,-5.855853E-05
589.1032,-5.849826E-05
589.2032,-5.852933E-05
589.3032,-5.8551E-05
589.4031,-5.851992E-05
589.5031,-5.849826E-05
589.6031,-5.847943E-05
589.7031,-5.847189E-05
589.803,-5.849167E-05
589.903,-5.851427E-05
590.003,-5.846247E-05
590.103,-5.844552E-05
590.2029,-5.845871E-05
590.3029,-5.843234E-05
590.4029,-5.843893E-05
590.5029,-5.844364E-05
590.6028,-5.842009E-05
590.7028,-5.840691E-05
590.8028,-5.842574E-05
590.9028,-5.841444E-05
591.0027,-5.839938E-05
591.1027,-5.837678E-05
591.2027,-5.837583E-05
591.3027,-5.838713E-05
591.4026,-5.837489E-05
591.5026,-5.839184E-05
591.6026,-5.837301E-05
591.7026,-5.833157E-05
591.8026,-5.828072E-05
591.9025,-5.832498E-05
592.0025,-5.832121E-05
592.1025,-5.829956E-05
592.2025,-5.827601E-05
592.3024,-5.831462E-05
592.4024,-5.831651E-05
592.5024,-5.826565E-05
592.6024,-5.827978E-05
592.7023,-5.827695E-05
592.8023,-5.822515E-05
592.9023,-5.824964E-05
593.0023,-5.82487E-05
593.1022,-5.822798E-05
593.2022,-5.82035E-05
593.3022,-5.821103E-05
593.4022,-5.818467E-05
593.5021,-5.817054E-05
593.6021,-5.81517E-05
593.7021,-5.81178E-05
593.8021,-5.809802E-05
593.902,-5.812627E-05
594.002,-5.810085E-05
594.102,-5.808484E-05
594.202,-5.808295E-05
594.3019,-5.808295E-05
594.4019,-5.805376E-05
594.5019,-5.803775E-05
594.6019,-5.804999E-05
594.7018,-5.80208E-05
594.8018,-5.802363E-05
594.9018,-5.80208E-05
595.0018,-5.79982E-05
595.1017,-5.79643E-05
595.2017,-5.799725E-05
595.3017,-5.801421E-05
595.4017,-5.79577E-05
595.5016,-5.79577E-05
595.6016,-5.795959E-05
595.7016,-5.796995E-05
595.8016,-5.798125E-05
595.9016,-5.796712E-05
596.0015,-5.792004E-05
596.1015,-5.790214E-05
596.2015,-5.793981E-05
596.3015,-5.79125E-05
596.4014,-5.791062E-05
596.5014,-5.790967E-05
596.6014,-5.785694E-05
596.7014,-5.78673E-05
596.8013,-5.785788E-05
596.9013,-5.782963E-05
597.0013,-5.784563E-05
597.1013,-5.78381E-05
597.2012,-5.779196E-05
597.3012,-5.780138E-05
597.4012,-5.780797E-05
597.5012,-5.780138E-05
597.6011,-5.782869E-05
597.7011,-5.776559E-05
597.8011,-5.778066E-05
597.9011,-5.776465E-05
598.001,-5.777218E-05
598.101,-5.775147E-05
598.201,-5.778443E-05
598.301,-5.775712E-05
598.4009,-5.770909E-05
598.5009,-5.772133E-05
598.6009,-5.774393E-05
598.7009,-5.768649E-05
598.8008,-5.769967E-05
598.9008,-5.774111E-05
599.0008,-5.768366E-05
599.1008,-5.766859E-05
599.2007,-5.766671E-05
599.3007,-5.769308E-05
599.4007,-5.7662E-05
599.5007,-5.762621E-05
599.6006,-5.763846E-05
599.7006,-5.762433E-05
599.8006,-5.762904E-05
599.9006,-5.757254E-05
600.0005,-5.757913E-05
