EXPID. 1241
[电化学]: i-t : @ 0(V) X 600(sec)
起始电位 (V),0
静置时间 (秒),0
运行时间 (秒),600
记录间隔,0.1
电解液 信息:
HNO3,0.4
0.1,-0.01005814
0.2,-0.01005814
0.3,-0.01005814
0.4,-0.01005814
0.5,-0.007937778
0.6,-0.006240794
0.7,-0.0048541
0.8000001,-0.004536431
0.9000001,-0.00459051
1,-0.004523985
1.1,-0.004364236
1.2,-0.004199028
1.3,-0.004042611
1.4,-0.003902254
1.5,-0.003782726
1.6,-0.003659112
1.7,-0.003549102
1.8,-0.003452906
1.9,-0.003357496
2,-0.003267817
2.1,-0.003184431
2.2,-0.003101952
2.3,-0.003024197
2.4,-0.002951682
2.5,-0.002883388
2.6,-0.002818396
2.7,-0.002758558
2.799999,-0.002702059
2.899999,-0.002649199
2.999999,-0.002600136
3.099999,-0.002552861
3.199999,-0.002508561
3.299999,-0.002467261
3.399999,-0.002428604
3.499999,-0.002391528
3.599999,-0.002357029
3.699999,-0.002324177
3.799999,-0.002291393
3.899998,-0.002262102
3.999998,-0.002233433
4.099998,-0.002206244
4.199998,-0.002179816
4.299998,-0.002155269
4.399998,-0.002130576
4.499998,-0.002107159
4.599998,-0.00208506
4.699998,-0.002063512
4.799998,-0.002041724
4.899998,-0.002021921
4.999998,-0.002002505
5.099998,-0.00198336
5.199997,-0.001965002
5.299997,-0.001947492
5.399997,-0.001929576
5.499997,-0.001912847
5.599997,-0.001896328
5.699997,-0.001880297
5.799997,-0.00186452
5.899997,-0.001849571
5.999997,-0.001834335
6.099997,-0.001819799
6.199996,-0.001805691
6.299996,-0.001791313
6.399996,-0.001778072
6.499996,-0.001764562
6.599996,-0.001751196
6.699996,-0.001738699
6.799996,-0.001725806
6.899996,-0.001713455
6.999996,-0.001701581
7.099996,-0.001689577
7.199996,-0.001677971
7.299995,-0.001666832
7.399995,-0.001655031
7.499995,-0.001643873
7.599995,-0.001633217
7.699995,-0.001622012
7.799995,-0.00161135
7.899995,-0.0016009
7.999995,-0.001590963
8.099995,-0.001580833
8.199995,-0.001570718
8.299995,-0.001560398
8.399996,-0.001550625
8.499996,-0.001541006
8.599997,-0.001531505
8.699997,-0.001522531
8.799997,-0.001513105
8.899998,-0.001503877
8.999998,-0.001494792
9.099998,-0.001485943
9.199999,-0.001476817
9.299999,-0.001468586
9.4,-0.001459925
9.5,-0.001451337
9.6,-0.001442846
9.700001,-0.001434515
9.800001,-0.001426258
9.900002,-0.00141784
10,-0.001409879
10.1,-0.001401892
10.2,-0.001394005
10.3,-0.001386137
10.4,-0.001378549
10.5,-0.001370937
10.6,-0.001363244
10.7,-0.001355983
10.8,-0.001348401
10.90001,-0.001340972
11.00001,-0.00133386
11.10001,-0.001326534
11.20001,-0.001319365
11.30001,-0.001312436
11.40001,-0.00130531
11.50001,-0.001298357
11.60001,-0.001291655
11.70001,-0.001284718
11.80001,-0.001277895
11.90001,-0.001271314
12.00001,-0.001264598
12.10001,-0.001257982
12.20001,-0.001251449
12.30001,-0.00124499
12.40001,-0.001238615
12.50001,-0.001232263
12.60001,-0.001226035
12.70001,-0.001219826
12.80001,-0.001213685
12.90001,-0.001207254
13.00001,-0.001201298
13.10001,-0.001195321
13.20001,-0.001189213
13.30001,-0.001183444
13.40001,-0.001177531
13.50002,-0.001171511
13.60002,-0.001165807
13.70002,-0.001160067
13.80002,-0.001154546
13.90002,-0.001148851
14.00002,-0.001143234
14.10002,-0.001137574
14.20002,-0.001132016
14.30002,-0.001126609
14.40002,-0.001121156
14.50002,-0.001115547
14.60002,-0.001110333
14.70002,-0.001104999
14.80002,-0.001099539
14.90002,-0.001094271
15.00002,-0.001089193
15.10002,-0.00108375
15.20002,-0.0010788
15.30002,-0.001073985
15.40002,-0.001068708
15.50002,-0.001063906
15.60002,-0.001058933
15.70002,-0.001053754
15.80002,-0.001049015
15.90002,-0.001044188
16.00002,-0.001039102
16.10003,-0.001034236
16.20003,-0.001029472
16.30003,-0.001024482
16.40003,-0.001019879
16.50003,-0.001015177
16.60003,-0.001010409
16.70003,-0.001005804
16.80003,-0.001001216
16.90003,-0.0009964608
17.00003,-0.0009920874
17.10003,-0.0009874767
17.20003,-0.000982818
17.30003,-0.0009785669
17.40003,-0.0009740523
17.50003,-0.0009695339
17.60003,-0.0009653865
17.70003,-0.0009609077
17.80003,-0.000956474
17.90003,-0.0009522823
18.00003,-0.000948053
18.10003,-0.0009436702
18.20003,-0.0009395624
18.30003,-0.000935479
18.40003,-0.0009311885
18.50003,-0.0009272002
18.60003,-0.0009231028
18.70004,-0.0009190439
18.80004,-0.0009149257
18.90004,-0.0009111117
19.00004,-0.0009071291
19.10004,-0.000903139
19.20004,-0.0008992138
19.30004,-0.0008952972
19.40004,-0.0008913909
19.50004,-0.0008874959
19.60004,-0.0008837176
19.70004,-0.0008799508
19.80004,-0.0008760699
19.90004,-0.0008723133
20.00004,-0.0008685587
20.10004,-0.0008647785
20.20004,-0.0008611811
20.30004,-0.0008574537
20.40004,-0.0008538026
20.50004,-0.0008501582
20.60004,-0.0008466078
20.70004,-0.0008429793
20.80004,-0.0008395166
20.90004,-0.0008359097
21.00004,-0.0008323594
21.10004,-0.0008289466
21.20004,-0.0008253746
21.30005,-0.0008219834
21.40005,-0.0008185941
21.50005,-0.0008151097
21.60005,-0.0008118146
21.70005,-0.0008084828
21.80005,-0.0008050059
21.90005,-0.000801739
22.00005,-0.0007984138
22.10005,-0.0007951949
22.20005,-0.0007920439
22.30005,-0.0007886537
22.40005,-0.0007854725
22.50005,-0.0007823441
22.60005,-0.0007790546
22.70005,-0.0007759639
22.80005,-0.0007730247
22.90005,-0.0007697466
23.00005,-0.0007666557
23.10005,-0.0007636526
23.20005,-0.000760559
23.30005,-0.0007573552
23.40005,-0.0007546213
23.50005,-0.0007515975
23.60005,-0.0007485095
23.70005,-0.0007456504
23.80005,-0.0007426708
23.90005,-0.0007396083
24.00006,-0.0007367586
24.10006,-0.0007338835
24.20006,-0.0007308916
24.30006,-0.0007280128
24.40006,-0.0007251885
24.50006,-0.0007223604
24.60006,-0.0007194147
24.70006,-0.0007166677
24.80006,-0.0007137088
24.90006,-0.0007109523
25.00006,-0.0007082722
25.10006,-0.0007054706
25.20006,-0.0007026999
25.30006,-0.0006999501
25.40006,-0.0006973952
25.50006,-0.0006945464
25.60006,-0.0006920244
25.70006,-0.0006893547
25.80006,-0.0006866198
25.90006,-0.0006841507
26.00006,-0.0006815421
26.10006,-0.0006788035
26.20006,-0.0006762985
26.30006,-0.000673787
26.40006,-0.0006710719
26.50006,-0.000668662
26.60007,-0.0006661231
26.70007,-0.0006636821
26.80007,-0.000661243
26.90007,-0.0006587126
27.00007,-0.0006561765
27.10007,-0.0006538383
27.20007,-0.0006514048
27.30007,-0.0006489393
27.40007,-0.0006465614
27.50007,-0.0006441309
27.60007,-0.0006417398
27.70007,-0.0006393488
27.80007,-0.0006370839
27.90007,-0.0006346288
28.00007,-0.0006323206
28.10007,-0.0006300632
28.20007,-0.0006277287
28.30007,-0.0006254356
28.40007,-0.0006231858
28.50007,-0.0006209709
28.60007,-0.0006187522
28.70007,-0.0006165815
28.80007,-0.0006143994
28.90007,-0.0006121459
29.00007,-0.000609929
29.10007,-0.0006077019
29.20008,-0.0006055707
29.30008,-0.000603449
29.40008,-0.0006013047
29.50008,-0.0005990926
29.60008,-0.0005971667
29.70008,-0.000595142
29.80008,-0.0005928592
29.90008,-0.0005908468
30.00008,-0.0005889115
30.10008,-0.0005866485
30.20008,-0.0005846689
30.30008,-0.0005827073
30.40008,-0.000580613
30.50008,-0.0005785911
30.60008,-0.0005767095
30.70008,-0.000574666
30.80008,-0.0005725319
30.90008,-0.0005706522
31.00008,-0.0005685983
31.10008,-0.0005666254
31.20008,-0.0005647156
31.30008,-0.0005626862
31.40008,-0.0005607678
31.50008,-0.0005588505
31.60008,-0.0005568729
31.70008,-0.0005549527
31.80009,-0.0005531972
31.90009,-0.0005512121
32.00008,-0.0005493306
32.10008,-0.0005475168
32.20008,-0.0005456635
32.30008,-0.000543796
32.40008,-0.0005420161
32.50008,-0.0005401995
32.60007,-0.0005384046
32.70007,-0.0005366209
32.80007,-0.0005347884
32.90007,-0.0005330358
33.00007,-0.0005313284
33.10007,-0.0005295052
33.20007,-0.0005277959
33.30006,-0.0005260123
33.40006,-0.0005243219
33.50006,-0.0005226164
33.60006,-0.000520863
33.70006,-0.0005191443
33.80006,-0.0005175075
33.90005,-0.0005157682
34.00005,-0.0005141154
34.10005,-0.0005124843
34.20005,-0.0005107657
34.30005,-0.0005092344
34.40005,-0.0005076429
34.50005,-0.0005059346
34.60004,-0.0005042583
34.70004,-0.00050268
34.80004,-0.0005011215
34.90004,-0.0004995101
35.00004,-0.0004979044
35.10004,-0.0004963836
35.20004,-0.0004947572
35.30003,-0.0004931647
35.40003,-0.0004917182
35.50003,-0.0004900909
35.60003,-0.0004885333
35.70003,-0.0004870755
35.80003,-0.0004855178
35.90002,-0.000483964
36.00002,-0.0004824987
36.10002,-0.0004808799
36.20002,-0.0004793646
36.30002,-0.0004779369
36.40002,-0.0004765159
36.50002,-0.0004750355
36.60001,-0.0004736078
36.70001,-0.0004720973
36.80001,-0.0004706639
36.90001,-0.0004691854
37.00001,-0.0004677578
37.10001,-0.0004663546
37.2,-0.0004649213
37.3,-0.0004634748
37.4,-0.0004620857
37.5,-0.0004607117
37.6,-0.0004592953
37.7,-0.0004579468
37.8,-0.0004566444
37.89999,-0.0004551235
37.99999,-0.0004539228
38.09999,-0.0004525582
38.19999,-0.0004512134
38.29999,-0.0004498828
38.39999,-0.0004485201
38.49998,-0.0004471884
38.59998,-0.0004458785
38.69998,-0.0004445281
38.79998,-0.0004431531
38.89998,-0.0004419656
38.99998,-0.0004407875
39.09998,-0.0004394625
39.19997,-0.0004381949
39.29997,-0.0004369189
39.39997,-0.0004356165
39.49997,-0.0004343762
39.59997,-0.0004330945
39.69997,-0.0004318316
39.79996,-0.0004306413
39.89996,-0.0004293945
39.99996,-0.0004281137
40.09996,-0.0004269186
40.19996,-0.0004257038
40.29996,-0.0004244551
40.39996,-0.000423292
40.49995,-0.0004220809
40.59995,-0.0004208793
40.69995,-0.0004197417
40.79995,-0.0004185447
40.89995,-0.0004173525
40.99995,-0.0004162121
41.09995,-0.0004149681
41.19994,-0.000413854
41.29994,-0.0004127352
41.39994,-0.000411494
41.49994,-0.0004103752
41.59994,-0.0004092998
41.69994,-0.0004081848
41.79993,-0.0004070265
41.89993,-0.0004059237
41.99993,-0.0004047333
42.09993,-0.0004036278
42.19993,-0.0004025099
42.29993,-0.0004013902
42.39993,-0.0004002865
42.49992,-0.0003991658
42.59992,-0.0003981497
42.69992,-0.0003970403
42.79992,-0.0003959564
42.89992,-0.0003948809
42.99992,-0.0003938234
43.09991,-0.0003927931
43.19991,-0.0003917459
43.29991,-0.0003907194
43.39991,-0.0003895987
43.49991,-0.0003886335
43.59991,-0.0003876136
43.69991,-0.0003864995
43.7999,-0.0003855484
43.8999,-0.0003845746
43.9999,-0.000383501
44.0999,-0.0003825264
44.1999,-0.0003815083
44.2999,-0.0003804753
44.39989,-0.0003795335
44.49989,-0.0003784891
44.59989,-0.000377458
44.69989,-0.0003765727
44.79989,-0.0003755585
44.89989,-0.0003745038
44.99989,-0.0003736016
45.09988,-0.0003726297
45.19988,-0.0003716296
45.29988,-0.0003707142
45.39988,-0.0003698073
45.49988,-0.0003687959
45.59988,-0.0003678938
45.69987,-0.0003669426
45.79987,-0.0003659641
45.89987,-0.0003650299
45.99987,-0.0003641362
46.09987,-0.0003631757
46.19987,-0.000362281
46.29987,-0.0003613581
46.39986,-0.0003604192
46.49986,-0.0003595839
46.59986,-0.000358645
46.69986,-0.0003577211
46.79986,-0.0003568454
46.89986,-0.0003559808
46.99986,-0.000355106
47.09985,-0.0003542386
47.19985,-0.0003533242
47.29985,-0.0003524767
47.39985,-0.0003515745
47.49985,-0.0003507439
47.59985,-0.0003498756
47.69984,-0.0003490083
47.79984,-0.0003481626
47.89984,-0.0003473499
47.99984,-0.0003464684
48.09984,-0.0003456387
48.19984,-0.0003447874
48.29984,-0.0003439286
48.39983,-0.0003431074
48.49983,-0.0003423041
48.59983,-0.0003414904
48.69983,-0.0003406749
48.79983,-0.0003398104
48.89983,-0.0003390033
48.99982,-0.0003382235
49.09982,-0.0003373958
49.19982,-0.0003365529
49.29982,-0.0003357619
49.39982,-0.0003349379
49.49982,-0.0003341619
49.59982,-0.0003334113
49.69981,-0.0003325581
49.79981,-0.0003317614
49.89981,-0.0003310344
49.99981,-0.0003302706
50.09981,-0.0003294221
50.19981,-0.0003287008
50.2998,-0.0003279502
50.3998,-0.0003271111
50.4998,-0.0003264208
50.5998,-0.0003256552
50.6998,-0.0003248434
50.7998,-0.00032409
50.8998,-0.0003233084
50.99979,-0.0003225503
51.09979,-0.0003217659
51.19979,-0.0003210718
51.29979,-0.0003202873
51.39979,-0.0003196027
51.49979,-0.0003188644
51.59978,-0.0003181119
51.69978,-0.0003174
51.79978,-0.0003166673
51.89978,-0.0003159224
51.99978,-0.0003152293
52.09978,-0.0003145098
52.19978,-0.0003137847
52.29977,-0.000313101
52.39977,-0.0003124097
52.49977,-0.0003116987
52.59977,-0.0003110197
52.69977,-0.0003102833
52.79977,-0.0003096194
52.89977,-0.000308947
52.99976,-0.0003082473
53.09976,-0.0003075561
53.19976,-0.0003068809
53.29976,-0.0003062113
53.39976,-0.0003055436
53.49976,-0.0003048834
53.59975,-0.0003042308
53.69975,-0.000303566
53.79975,-0.0003029397
53.89975,-0.000302241
53.99975,-0.0003015582
54.09975,-0.000300964
54.19975,-0.0003002784
54.29974,-0.0002996238
54.39974,-0.0002990409
54.49974,-0.0002983827
54.59974,-0.0002976698
54.69974,-0.000297019
54.79974,-0.0002964201
54.89973,-0.0002957901
54.99973,-0.000295129
55.09973,-0.0002945442
55.19973,-0.0002938934
55.29973,-0.0002932154
55.39973,-0.0002926287
55.49973,-0.000292058
55.59972,-0.0002914091
55.69972,-0.0002907791
55.79972,-0.0002902518
55.89972,-0.0002896246
55.99972,-0.0002889729
56.09972,-0.0002883909
56.19971,-0.0002877439
56.29971,-0.0002871553
56.39971,-0.0002866082
56.49971,-0.0002859452
56.59971,-0.00028535
56.69971,-0.000284736
56.79971,-0.0002842378
56.8997,-0.0002836935
56.9997,-0.0002830823
57.0997,-0.0002824881
57.1997,-0.0002819353
57.2997,-0.0002813769
57.3997,-0.0002807271
57.49969,-0.0002801639
57.59969,-0.0002796159
57.69969,-0.0002790565
57.79969,-0.0002784839
57.89969,-0.0002778878
57.99969,-0.0002773265
58.09969,-0.0002767925
58.19968,-0.0002762538
58.29968,-0.0002756662
58.39968,-0.0002750824
58.49968,-0.0002745767
58.59968,-0.000274037
58.69968,-0.0002734635
58.79967,-0.0002728891
58.89967,-0.0002723683
58.99967,-0.00027179
59.09967,-0.0002713248
59.19967,-0.0002707551
59.29967,-0.0002702079
59.39967,-0.0002696787
59.49966,-0.0002692116
59.59966,-0.0002686192
59.69966,-0.0002680731
59.79966,-0.0002675608
59.89966,-0.0002669966
59.99966,-0.0002664862
60.09966,-0.0002659956
60.19965,-0.0002654465
60.29965,-0.0002649568
60.39965,-0.0002644351
60.49965,-0.0002639172
60.59965,-0.0002634341
60.69965,-0.00026295
60.79964,-0.0002624302
60.89964,-0.000261933
60.99964,-0.0002614517
61.09964,-0.0002609018
61.19964,-0.0002604507
61.29964,-0.0002599308
61.39964,-0.0002594185
61.49963,-0.0002589326
61.59963,-0.0002584184
61.69963,-0.0002579155
61.79963,-0.0002574692
61.89963,-0.0002569333
61.99963,-0.0002564059
62.09962,-0.000255969
62.19962,-0.000255516
62.29962,-0.0002549755
62.39962,-0.0002545196
62.49962,-0.0002540535
62.59962,-0.0002535327
62.69962,-0.0002530901
62.79961,-0.0002526164
62.89961,-0.0002520184
62.99961,-0.0002514986
63.09961,-0.000251055
63.19961,-0.0002505653
63.29961,-0.0002502056
63.3996,-0.0002498223
63.4996,-0.0002493533
63.5996,-0.000248873
63.6996,-0.0002483861
63.7996,-0.0002479577
63.8996,-0.0002475094
63.9996,-0.0002470659
64.09959,-0.0002465705
64.19959,-0.0002460949
64.29959,-0.0002456551
64.39959,-0.0002451937
64.49959,-0.0002447379
64.59959,-0.0002443188
64.69958,-0.0002438621
64.79958,-0.0002434034
64.89958,-0.0002429853
64.99958,-0.0002425305
65.09958,-0.0002420756
65.19958,-0.0002416631
65.29958,-0.0002412535
65.39957,-0.000240808
65.49957,-0.0002403607
65.59957,-0.0002399002
65.69957,-0.0002395
65.79957,-0.0002391007
65.89957,-0.0002386279
65.99957,-0.0002381674
66.09956,-0.0002377907
66.19956,-0.0002373764
66.29956,-0.0002369366
66.39956,-0.0002365514
66.49956,-0.0002361069
66.59956,-0.0002356643
66.69955,-0.0002352914
66.79955,-0.0002348648
66.89955,-0.0002344447
66.99955,-0.0002340304
67.09955,-0.0002336349
67.19955,-0.0002332083
67.29955,-0.0002328391
67.39954,-0.000232421
67.49954,-0.000232
67.59954,-0.0002316064
67.69954,-0.000231209
67.79954,-0.000230804
67.89954,-0.000230416
67.99953,-0.0002300139
68.09953,-0.0002295854
68.19953,-0.0002292021
68.29953,-0.0002288132
68.39953,-0.0002283941
68.49953,-0.0002280721
68.59953,-0.0002276596
68.69952,-0.0002272188
68.79952,-0.0002268921
68.89952,-0.0002265314
68.99952,-0.0002260822
69.09952,-0.0002257733
69.19952,-0.0002254409
69.29951,-0.0002250425
69.39951,-0.0002246357
69.49951,-0.0002242515
69.59951,-0.0002238559
69.69951,-0.0002235084
69.79951,-0.0002231383
69.89951,-0.0002227503
69.9995,-0.0002223868
70.0995,-0.0002220167
70.1995,-0.0002216523
70.2995,-0.0002212803
70.3995,-0.0002209271
70.4995,-0.0002205523
70.59949,-0.0002201973
70.69949,-0.0002198225
70.79949,-0.0002194373
70.89949,-0.0002190719
70.99949,-0.0002187244
71.09949,-0.0002183656
71.19949,-0.0002180021
71.29948,-0.0002176471
71.39948,-0.0002172921
71.49948,-0.0002169709
71.59948,-0.0002165971
71.69948,-0.0002162025
71.79948,-0.0002158606
71.89948,-0.0002155423
71.99947,-0.0002151882
72.09947,-0.0002148407
72.19947,-0.0002145328
72.29947,-0.0002141325
72.39947,-0.0002138256
72.49947,-0.0002135063
72.59946,-0.0002131428
72.69946,-0.0002128038
72.79946,-0.0002124506
72.89946,-0.0002121238
72.99946,-0.0002118262
73.09946,-0.0002114515
73.19946,-0.0002111247
73.29945,-0.0002107574
73.39945,-0.0002104231
73.49945,-0.0002101085
73.59945,-0.000209761
73.69945,-0.0002094456
73.79945,-0.0002090952
73.89944,-0.0002087402
73.99944,-0.0002084294
74.09944,-0.0002081017
74.19944,-0.0002077721
74.29944,-0.0002074613
74.39944,-0.0002071176
74.49944,-0.0002068257
74.59943,-0.0002064989
74.69943,-0.0002061636
74.79943,-0.0002058095
74.89943,-0.0002055157
74.99943,-0.0002052125
75.09943,-0.0002048895
75.19942,-0.0002045476
75.29942,-0.0002042321
75.39942,-0.0002039185
75.49942,-0.0002036379
75.59942,-0.0002033092
75.69942,-0.0002030088
75.79942,-0.0002026981
75.89941,-0.0002023816
75.99941,-0.0002020643
76.09941,-0.0002017582
76.19941,-0.0002014569
76.29941,-0.0002011592
76.39941,-0.0002008749
76.4994,-0.0002006065
76.5994,-0.0002002552
76.6994,-0.0001999953
76.7994,-0.0001995819
76.8994,-0.0001992372
76.9994,-0.0001990064
77.0994,-0.0001987786
77.19939,-0.0001984612
77.29939,-0.0001981881
77.39939,-0.0001978905
77.49939,-0.0001975844
77.59939,-0.0001973047
77.69939,-0.0001970138
77.79939,-0.0001967002
77.89938,-0.0001964261
77.99938,-0.0001961295
78.09938,-0.0001958526
78.19938,-0.0001955946
78.29938,-0.0001952989
78.39938,-0.0001949674
78.49937,-0.0001946905
78.59937,-0.0001944193
78.69937,-0.0001941443
78.79937,-0.0001938373
78.89937,-0.0001935793
78.99937,-0.000193261
79.09937,-0.0001930114
79.19936,-0.0001927308
79.29936,-0.000192452
79.39936,-0.0001921573
79.49936,-0.0001918776
79.59936,-0.0001915894
79.69936,-0.0001913229
79.79935,-0.0001910479
79.89935,-0.0001907343
79.99935,-0.0001904829
80.09935,-0.0001902032
80.19935,-0.0001899159
80.29935,-0.0001896475
80.39935,-0.0001893773
80.49934,-0.0001891287
80.59934,-0.0001888508
80.69934,-0.0001885636
80.79934,-0.0001882858
80.89934,-0.0001880636
80.99934,-0.0001877641
81.09933,-0.0001874834
81.19933,-0.0001872245
81.29933,-0.0001869966
81.39933,-0.0001867536
81.49933,-0.0001865003
81.59933,-0.0001862187
81.69933,-0.0001859343
81.79932,-0.000185697
81.89932,-0.0001854672
81.99932,-0.0001851866
82.09932,-0.0001849069
82.19932,-0.0001846309
82.29932,-0.0001843927
82.39931,-0.0001841403
82.49931,-0.0001838785
82.59931,-0.0001836101
82.69931,-0.0001833756
82.79931,-0.0001831232
82.89931,-0.0001828426
82.99931,-0.0001825968
83.0993,-0.0001823491
83.1993,-0.0001821043
83.2993,-0.0001818519
83.3993,-0.0001815976
83.4993,-0.0001813358
83.5993,-0.0001810957
83.6993,-0.0001808433
83.79929,-0.0001806304
83.89929,-0.0001803376
83.99929,-0.000180136
84.09929,-0.0001798903
84.19929,-0.0001796407
84.29929,-0.0001794166
84.39928,-0.0001791689
84.49928,-0.0001789061
84.59928,-0.0001787103
84.69928,-0.0001784513
84.79928,-0.0001782149
84.89928,-0.0001779701
84.99928,-0.0001777224
85.09927,-0.0001774785
85.19927,-0.0001772449
85.29927,-0.0001770293
85.39927,-0.0001767882
85.49927,-0.0001765801
85.59927,-0.0001763701
85.69926,-0.0001760989
85.79926,-0.0001758851
85.89926,-0.0001756374
85.99926,-0.0001753888
86.09926,-0.0001751609
86.19926,-0.0001749028
86.29926,-0.0001746947
86.39925,-0.0001745403
86.49925,-0.0001742794
86.59925,-0.000174027
86.69925,-0.000173802
86.79925,-0.0001735882
86.89925,-0.0001733424
86.99924,-0.0001731088
87.09924,-0.0001729073
87.19924,-0.0001726418
87.29924,-0.0001724647
87.39924,-0.0001722236
87.49924,-0.0001719816
87.59924,-0.0001717923
87.69923,-0.0001715814
87.79923,-0.0001713233
87.89923,-0.0001710879
87.99923,-0.000170892
88.09923,-0.0001706566
88.19923,-0.0001704569
88.29922,-0.0001701989
88.39922,-0.000169955
88.49922,-0.0001697601
88.59922,-0.0001695293
88.69922,-0.0001692788
88.79922,-0.0001691046
88.89922,-0.0001689172
88.99921,-0.0001686855
89.09921,-0.0001684897
89.19921,-0.0001682542
89.29921,-0.0001680244
89.39921,-0.0001678069
89.49921,-0.0001675847
89.59921,-0.000167336
89.6992,-0.0001670978
89.7992,-0.0001669057
89.8992,-0.0001666561
89.9992,-0.000166448
90.0992,-0.0001662841
90.1992,-0.0001660506
90.29919,-0.0001658575
90.39919,-0.0001656447
90.49919,-0.0001654064
90.59919,-0.000165187
90.69919,-0.0001650043
90.79919,-0.0001647792
90.89919,-0.000164557
90.99918,-0.0001643696
91.09918,-0.0001641577
91.19918,-0.0001639665
91.29918,-0.0001637725
91.39918,-0.0001635465
91.49918,-0.0001633356
91.59917,-0.0001631481
91.69917,-0.0001629542
91.79917,-0.0001627564
91.89917,-0.0001625586
91.99917,-0.0001623072
92.09917,-0.0001621236
92.19917,-0.0001619719
92.29916,-0.0001617431
92.39916,-0.0001615369
92.49916,-0.0001613739
92.59916,-0.0001611856
92.69916,-0.000160968
92.79916,-0.0001607882
92.89915,-0.0001605923
92.99915,-0.0001603889
93.09915,-0.0001602203
93.19915,-0.0001600216
93.29915,-0.0001598154
93.39915,-0.0001596242
93.49915,-0.0001594255
93.59914,-0.0001592305
93.69914,-0.000159062
93.79914,-0.0001588831
93.89914,-0.0001586533
93.99914,-0.0001584678
94.09914,-0.0001582483
94.19913,-0.0001580826
94.29913,-0.0001579319
94.39913,-0.000157736
94.49913,-0.000157527
94.59913,-0.0001573471
94.69913,-0.0001571653
94.79913,-0.0001569723
94.89912,-0.0001567745
94.99912,-0.0001565956
95.09912,-0.0001564327
95.19912,-0.000156217
95.29912,-0.0001560277
95.39912,-0.0001558234
95.49911,-0.0001556652
95.59911,-0.0001554542
95.69911,-0.0001552706
95.79911,-0.0001551058
95.89911,-0.0001549127
95.99911,-0.0001547583
96.09911,-0.0001546424
96.1991,-0.0001544522
96.2991,-0.0001541904
96.3991,-0.000154002
96.4991,-0.0001538382
96.5991,-0.0001536687
96.6991,-0.0001534954
96.7991,-0.0001533203
96.89909,-0.0001531178
96.99909,-0.0001529652
97.09909,-0.0001528155
97.19909,-0.0001526205
97.29909,-0.0001524444
97.39909,-0.0001523003
97.49908,-0.0001521101
97.59908,-0.0001519397
97.69908,-0.0001517683
97.79908,-0.0001515771
97.89908,-0.0001513831
97.99908,-0.0001511976
98.09908,-0.0001510554
98.19907,-0.0001509264
98.29907,-0.0001507201
98.39907,-0.0001505082
98.49907,-0.0001503472
98.59907,-0.0001501975
98.69907,-0.0001500251
98.79906,-0.0001498537
98.89906,-0.000149687
98.99906,-0.0001495034
99.09906,-0.0001493574
99.19906,-0.0001492228
99.29906,-0.0001490034
99.39906,-0.0001488414
99.49905,-0.0001487029
99.59905,-0.0001485353
99.69905,-0.0001483733
99.79905,-0.0001482227
99.89905,-0.0001479966
99.99905,-0.0001478723
100.099,-0.0001477424
100.199,-0.0001475597
100.299,-0.0001473958
100.399,-0.0001472414
100.499,-0.0001470832
100.599,-0.0001469325
100.699,-0.0001467507
100.799,-0.0001466132
100.899,-0.0001464286
100.999,-0.0001462299
101.099,-0.0001461019
101.199,-0.0001459276
101.299,-0.0001457892
101.399,-0.0001456291
101.499,-0.0001454691
101.599,-0.0001453033
101.699,-0.0001451573
101.799,-0.0001450123
101.899,-0.0001448381
101.999,-0.0001447062
102.099,-0.0001445678
102.199,-0.0001444313
102.299,-0.0001442382
102.399,-0.000144079
102.499,-0.0001439086
102.599,-0.0001437409
102.699,-0.0001435856
102.799,-0.0001434387
102.899,-0.0001432597
102.999,-0.0001431109
103.099,-0.0001429461
103.199,-0.0001427682
103.299,-0.000142625
103.399,-0.0001424753
103.499,-0.0001423255
103.599,-0.0001421796
103.699,-0.0001420458
103.799,-0.0001419027
103.899,-0.0001417162
103.999,-0.0001416221
104.099,-0.0001414083
104.199,-0.0001411559
104.299,-0.0001410561
104.399,-0.0001409572
104.499,-0.0001407848
104.599,-0.0001406672
104.699,-0.0001405428
104.799,-0.0001403677
104.899,-0.0001402415
104.999,-0.000140088
105.099,-0.0001399203
105.199,-0.0001398337
105.299,-0.0001397019
105.399,-0.0001394985
105.499,-0.0001394005
105.599,-0.000139264
105.699,-0.0001391274
105.799,-0.0001389927
105.899,-0.0001388393
105.999,-0.0001386989
106.099,-0.0001385963
106.199,-0.0001384484
106.299,-0.000138278
106.3989,-0.0001381395
106.4989,-0.0001380228
106.5989,-0.0001378532
106.6989,-0.0001376997
106.7989,-0.0001375689
106.8989,-0.0001374257
106.9989,-0.0001372825
107.0989,-0.0001371771
107.1989,-0.0001369944
107.2989,-0.0001368861
107.3989,-0.0001367467
107.4989,-0.0001365669
107.5989,-0.0001364133
107.6989,-0.0001363069
107.7989,-0.0001361892
107.8989,-0.0001360056
107.9989,-0.0001358963
108.0989,-0.0001357419
108.1989,-0.0001355846
108.2989,-0.0001354754
108.3989,-0.0001353285
108.4989,-0.0001351768
108.5989,-0.0001350535
108.6989,-0.000134899
108.7989,-0.0001347474
108.8989,-0.0001346806
108.9989,-0.0001345365
109.0989,-0.00013435
109.1989,-0.0001342238
109.2989,-0.0001340807
109.3989,-0.0001339432
109.4989,-0.0001338405
109.5989,-0.0001336974
109.6989,-0.0001335533
109.7989,-0.0001334233
109.8989,-0.0001332783
109.9989,-0.0001331757
110.0989,-0.0001330777
110.1989,-0.000132912
110.2989,-0.0001327378
110.3989,-0.0001326295
110.4989,-0.0001325202
110.5989,-0.0001323507
110.6989,-0.0001322434
110.7989,-0.0001320804
110.8989,-0.0001319345
110.9989,-0.0001318412
111.0989,-0.0001317188
111.1989,-0.0001315597
111.2989,-0.0001314222
111.3989,-0.0001312988
111.4989,-0.0001311594
111.5989,-0.0001310643
111.6989,-0.0001309221
111.7989,-0.0001307573
111.8989,-0.000130666
111.9989,-0.0001305643
112.0989,-0.0001303844
112.1989,-0.0001302572
112.2989,-0.0001301763
112.3989,-0.000130035
112.4989,-0.0001298947
112.5989,-0.0001297553
112.6989,-0.0001296461
112.7989,-0.0001295265
112.8988,-0.0001293871
112.9988,-0.0001292609
113.0988,-0.0001291488
113.1988,-0.0001290151
113.2988,-0.0001288814
113.3988,-0.0001287505
113.4988,-0.0001286365
113.5988,-0.000128532
113.6988,-0.0001284124
113.7988,-0.0001282937
113.8988,-0.0001281666
113.9988,-0.0001280461
114.0988,-0.0001279368
114.1988,-0.0001278125
114.2988,-0.0001277306
114.3988,-0.000127627
114.4988,-0.0001275083
114.5988,-0.0001274292
114.6988,-0.0001273398
114.7988,-0.000127223
114.8988,-0.0001271119
114.9988,-0.0001270007
115.0988,-0.0001268868
115.1988,-0.0001267427
115.2988,-0.0001266288
115.3988,-0.000126495
115.4988,-0.000126382
115.5988,-0.000126269
115.6988,-0.0001261466
115.7988,-0.0001260298
115.8988,-0.0001259234
115.9988,-0.000125801
116.0988,-0.0001256522
116.1988,-0.0001255825
116.2988,-0.0001254751
116.3988,-0.0001253188
116.4988,-0.0001252293
116.5988,-0.0001251173
116.6988,-0.000124993
116.7988,-0.0001248856
116.8988,-0.0001247425
116.9988,-0.0001246295
117.0988,-0.0001245748
117.1988,-0.000124427
117.2988,-0.0001243046
117.3988,-0.000124216
117.4988,-0.0001240757
117.5988,-0.0001239524
117.6988,-0.0001238525
117.7988,-0.0001237461
117.8988,-0.0001236077
117.9988,-0.0001234966
118.0988,-0.0001233996
118.1988,-0.0001232668
118.2988,-0.0001231811
118.3988,-0.0001230502
118.4988,-0.0001229268
118.5988,-0.0001228618
118.6988,-0.0001227677
118.7988,-0.0001226151
118.8988,-0.0001224936
118.9988,-0.0001223891
119.0988,-0.0001222667
119.1988,-0.0001221697
119.2988,-0.0001220642
119.3988,-0.0001219192
119.4987,-0.0001218297
119.5987,-0.0001217073
119.6987,-0.0001215952
119.7987,-0.0001215217
119.8987,-0.0001213758
119.9987,-0.0001212449
120.0987,-0.0001211667
120.1987,-0.0001210481
120.2987,-0.0001209341
120.3987,-0.0001208343
120.4987,-0.0001207571
120.5987,-0.0001206102
120.6987,-0.000120532
120.7987,-0.0001204284
120.8987,-0.0001203248
120.9987,-0.0001202391
121.0987,-0.0001201214
121.1987,-0.0001199933
121.2987,-0.000119933
121.3987,-0.0001198276
121.4987,-0.0001196844
121.5987,-0.0001195912
121.6987,-0.0001195149
121.7987,-0.0001193972
121.8987,-0.0001193011
121.9987,-0.0001191363
122.0987,-0.0001190629
122.1987,-0.0001189753
122.2987,-0.0001188482
122.3987,-0.0001187201
122.4987,-0.0001186146
122.5987,-0.0001185412
122.6987,-0.0001184178
122.7987,-0.0001183227
122.8987,-0.0001182351
122.9987,-0.0001181419
123.0987,-0.0001180307
123.1987,-0.0001179027
123.2987,-0.0001178471
123.3987,-0.0001177482
123.4987,-0.0001176362
123.5987,-0.000117526
123.6987,-0.0001174092
123.7987,-0.0001173226
123.8987,-0.0001172246
123.9987,-0.0001171305
124.0987,-0.0001170297
124.1987,-0.0001169195
124.2987,-0.0001168027
124.3987,-0.0001167029
124.4987,-0.0001166181
124.5987,-0.0001165061
124.6987,-0.0001164044
124.7987,-0.0001163017
124.8987,-0.0001161944
124.9987,-0.0001161011
125.0987,-0.0001160032
125.1987,-0.0001159119
125.2987,-0.0001158167
125.3987,-0.0001157226
125.4987,-0.0001156199
125.5987,-0.0001155248
125.6987,-0.0001154259
125.7987,-0.0001153355
125.8987,-0.0001152442
125.9986,-0.0001151773
126.0986,-0.0001150596
126.1986,-0.0001150003
126.2986,-0.0001149042
126.3986,-0.0001148166
126.4986,-0.0001146942
126.5986,-0.000114617
126.6986,-0.0001145143
126.7986,-0.0001144503
126.8986,-0.0001143655
126.9986,-0.0001142205
127.0986,-0.000114147
127.1986,-0.0001140651
127.2986,-0.0001139333
127.3986,-0.0001138608
127.4986,-0.0001137751
127.5986,-0.0001136903
127.6986,-0.0001136084
127.7986,-0.0001134897
127.8986,-0.0001134087
127.9986,-0.0001133343
128.0986,-0.0001132336
128.1986,-0.0001131535
128.2986,-0.0001130885
128.3986,-0.000112985
128.4986,-0.0001128503
128.5986,-0.0001127815
128.6987,-0.000112677
128.7987,-0.0001125875
128.8987,-0.0001125226
128.9987,-0.0001124237
129.0987,-0.000112338
129.1987,-0.0001122655
129.2987,-0.0001121854
129.3987,-0.0001120818
129.4987,-0.0001120065
129.5987,-0.000111902
129.6987,-0.0001118012
129.7987,-0.0001117324
129.8987,-0.0001116147
129.9987,-0.0001115055
130.0987,-0.0001114641
130.1987,-0.0001113708
130.2988,-0.000111239
130.3988,-0.0001111373
130.4988,-0.0001111024
130.5988,-0.0001109734
130.6988,-0.0001108943
130.7988,-0.0001107841
130.8988,-0.0001107041
130.9988,-0.0001106193
131.0988,-0.0001105289
131.1988,-0.0001104649
131.2988,-0.0001103754
131.3988,-0.0001102784
131.4988,-0.0001101758
131.5988,-0.0001100967
131.6988,-0.0001100439
131.7988,-0.0001099498
131.8988,-0.0001098452
131.9989,-0.0001097784
132.0989,-0.0001097181
132.1989,-0.0001096343
132.2989,-0.000109526
132.3989,-0.0001094374
132.4989,-0.000109316
132.5989,-0.0001092802
132.6989,-0.0001091785
132.7989,-0.0001090947
132.8989,-0.0001090137
132.9989,-0.0001089251
133.0989,-0.0001088319
133.1989,-0.0001087698
133.2989,-0.0001086718
133.3989,-0.000108588
133.4989,-0.0001085249
133.599,-0.0001084486
133.699,-0.0001083563
133.799,-0.0001082744
133.899,-0.0001081991
133.999,-0.0001081002
134.099,-0.000108023
134.199,-0.0001079194
134.299,-0.0001078233
134.399,-0.0001077809
134.499,-0.0001076971
134.599,-0.0001075766
134.699,-0.0001075276
134.799,-0.0001074316
134.899,-0.0001073826
134.999,-0.0001072941
135.099,-0.0001072121
135.1991,-0.0001071208
135.2991,-0.0001070558
135.3991,-0.0001069833
135.4991,-0.0001068844
135.5991,-0.0001068298
135.6991,-0.0001068072
135.7991,-0.0001066885
135.8991,-0.0001065868
135.9991,-0.0001065256
136.0991,-0.0001064587
136.1991,-0.0001063674
136.2991,-0.0001062798
136.3991,-0.0001061819
136.4991,-0.0001061357
136.5991,-0.0001060576
136.6991,-0.0001059559
136.7991,-0.0001059238
136.8992,-0.0001058268
136.9992,-0.0001057299
137.0992,-0.0001056639
137.1992,-0.0001055839
137.2992,-0.0001054925
137.3992,-0.0001054276
137.4992,-0.0001053494
137.5992,-0.0001052166
137.6992,-0.0001051884
137.7992,-0.000105113
137.8992,-0.0001050226
137.9992,-0.0001049237
138.0992,-0.0001048578
138.1992,-0.0001047862
138.2992,-0.0001047034
138.3992,-0.0001046299
138.4993,-0.0001045461
138.5993,-0.0001044858
138.6993,-0.0001044218
138.7993,-0.0001043304
138.8993,-0.0001042287
138.9993,-0.0001041845
139.0993,-0.0001041157
139.1993,-0.0001040055
139.2993,-0.0001039566
139.3993,-0.0001038313
139.4993,-0.0001037654
139.5993,-0.0001037211
139.6993,-0.0001036402
139.7993,-0.0001035545
139.8993,-0.0001035111
139.9993,-0.0001034556
140.0993,-0.0001033529
140.1994,-0.000103255
140.2994,-0.0001031693
140.3994,-0.0001030497
140.4994,-0.0001030177
140.5994,-0.0001029404
140.6994,-0.0001028472
140.7994,-0.0001028143
140.8994,-0.0001027483
140.9994,-0.0001026513
141.0994,-0.000102609
141.1994,-0.000102512
141.2994,-0.0001024338
141.3994,-0.000102382
141.4994,-0.0001023085
141.5994,-0.0001022172
141.6994,-0.0001021833
141.7995,-0.0001020957
141.8995,-0.0001019978
141.9995,-0.0001019403
142.0995,-0.0001018876
142.1995,-0.0001018226
142.2995,-0.0001017369
142.3995,-0.0001016587
142.4995,-0.0001015928
142.5995,-0.0001015665
142.6995,-0.0001014582
142.7995,-0.0001013762
142.8995,-0.0001013517
142.9995,-0.0001012482
143.0995,-0.0001011785
143.1995,-0.0001011154
143.2995,-0.0001010532
143.3996,-0.0001009562
143.4996,-0.0001009148
143.5996,-0.0001008517
143.6996,-0.0001007443
143.7996,-0.000100685
143.8996,-0.0001006087
143.9996,-0.0001005456
144.0996,-0.0001005127
144.1996,-0.0001004053
144.2996,-0.0001003017
144.3996,-0.000100248
144.4996,-0.0001002057
144.5996,-0.000100087
144.6996,-0.0001000305
144.7996,-9.997588E-05
144.8996,-9.992973E-05
144.9996,-9.985345E-05
145.0997,-9.976116E-05
145.1997,-9.970277E-05
145.2997,-9.962179E-05
145.3997,-9.953608E-05
145.4997,-9.94711E-05
145.5997,-9.938447E-05
145.6997,-9.930913E-05
145.7997,-9.924132E-05
145.8997,-9.918199E-05
145.9997,-9.913868E-05
146.0997,-9.905863E-05
146.1997,-9.902473E-05
146.2997,-9.893243E-05
146.3997,-9.887028E-05
146.4997,-9.878647E-05
146.5997,-9.873656E-05
146.6998,-9.86584E-05
146.7998,-9.85774E-05
146.8998,-9.853503E-05
146.9998,-9.844274E-05
147.0998,-9.837776E-05
147.1998,-9.837399E-05
147.2998,-9.826382E-05
147.3998,-9.818377E-05
147.4998,-9.818187E-05
147.5998,-9.811595E-05
147.6998,-9.801047E-05
147.7998,-9.793608E-05
147.8998,-9.78664E-05
147.9998,-9.777505E-05
148.0998,-9.778258E-05
148.1998,-9.769593E-05
148.2999,-9.758764E-05
148.3999,-9.754903E-05
148.4999,-9.749347E-05
148.5999,-9.742378E-05
148.6999,-9.73541E-05
148.7999,-9.727216E-05
148.8999,-9.722131E-05
148.9999,-9.717517E-05
149.0999,-9.707911E-05
149.1999,-9.6984E-05
149.2999,-9.693408E-05
149.3999,-9.689265E-05
149.4999,-9.682107E-05
149.5999,-9.675704E-05
149.6999,-9.663932E-05
149.7999,-9.658188E-05
149.8999,-9.655175E-05
150,-9.650371E-05
150.1,-9.639353E-05
150.2,-9.633986E-05
150.3,-9.627581E-05
150.4,-9.622025E-05
150.5,-9.613738E-05
150.6,-9.605638E-05
150.7,-9.598953E-05
150.8,-9.596599E-05
150.9,-9.588594E-05
151,-9.582661E-05
151.1,-9.579647E-05
151.2,-9.572866E-05
151.3,-9.563261E-05
151.4,-9.559023E-05
151.5,-9.552431E-05
151.6001,-9.543579E-05
151.7001,-9.540001E-05
151.8001,-9.530206E-05
151.9001,-9.520883E-05
152.0001,-9.517587E-05
152.1001,-9.512784E-05
152.2001,-9.50525E-05
152.3001,-9.500259E-05
152.4001,-9.491501E-05
152.5001,-9.485285E-05
152.6001,-9.483119E-05
152.7001,-9.473514E-05
152.8001,-9.467016E-05
152.9001,-9.461083E-05
153.0001,-9.454962E-05
153.1001,-9.447239E-05
153.2001,-9.442155E-05
153.3002,-9.436975E-05
153.4002,-9.428876E-05
153.5002,-9.424449E-05
153.6002,-9.417952E-05
153.7002,-9.409382E-05
153.8002,-9.402978E-05
153.9002,-9.397234E-05
154.0002,-9.392431E-05
154.1002,-9.388004E-05
154.2002,-9.381695E-05
154.3002,-9.371995E-05
154.4002,-9.368039E-05
154.5002,-9.364555E-05
154.6002,-9.356174E-05
154.7002,-9.34751E-05
154.8002,-9.346569E-05
154.9003,-9.34186E-05
155.0003,-9.331972E-05
155.1003,-9.323873E-05
155.2003,-9.316245E-05
155.3003,-9.312667E-05
155.4003,-9.310406E-05
155.5003,-9.301931E-05
155.6003,-9.297505E-05
155.7003,-9.292419E-05
155.8003,-9.285827E-05
155.9003,-9.279517E-05
156.0003,-9.275844E-05
156.1003,-9.272549E-05
156.2003,-9.264355E-05
156.3003,-9.261059E-05
156.4003,-9.255315E-05
156.5004,-9.248911E-05
156.6004,-9.24618E-05
156.7004,-9.23987E-05
156.8004,-9.230076E-05
156.9004,-9.22857E-05
157.0004,-9.225367E-05
157.1004,-9.216233E-05
157.2004,-9.211053E-05
157.3004,-9.203708E-05
157.4004,-9.198717E-05
157.5004,-9.194574E-05
157.6004,-9.18798E-05
157.7004,-9.178188E-05
157.8004,-9.174892E-05
157.9004,-9.171971E-05
158.0004,-9.163308E-05
158.1004,-9.156998E-05
158.2005,-9.147487E-05
158.3005,-9.142778E-05
158.4005,-9.144002E-05
158.5005,-9.135055E-05
158.6005,-9.127145E-05
158.7005,-9.121306E-05
158.8005,-9.120082E-05
158.9005,-9.113207E-05
159.0005,-9.107274E-05
159.1005,-9.099553E-05
159.2005,-9.093337E-05
159.3005,-9.091548E-05
159.4005,-9.084108E-05
159.5005,-9.076763E-05
159.6005,-9.069793E-05
159.7005,-9.069229E-05
159.8006,-9.06292E-05
159.9006,-9.057645E-05
160.0006,-9.050488E-05
160.1006,-9.04578E-05
160.2006,-9.042201E-05
160.3006,-9.033725E-05
160.4006,-9.027321E-05
160.5006,-9.022802E-05
160.6006,-9.018093E-05
160.7006,-9.009429E-05
160.8006,-9.005755E-05
160.9006,-9.001236E-05
161.0006,-8.996244E-05
161.1006,-8.990688E-05
161.2006,-8.989182E-05
161.3006,-8.983248E-05
161.4007,-8.974396E-05
161.5007,-8.965544E-05
161.6007,-8.963001E-05
161.7007,-8.954715E-05
161.8007,-8.953678E-05
161.9007,-8.945203E-05
162.0007,-8.941248E-05
162.1007,-8.936822E-05
162.2007,-8.93004E-05
162.3007,-8.923637E-05
162.4007,-8.918081E-05
162.5007,-8.913278E-05
162.6007,-8.906781E-05
162.7007,-8.901506E-05
162.8007,-8.893784E-05
162.9007,-8.887757E-05
163.0007,-8.884555E-05
163.1008,-8.880129E-05
163.2008,-8.87382E-05
163.3008,-8.866474E-05
163.4008,-8.858564E-05
163.5008,-8.853572E-05
163.6008,-8.851972E-05
163.7008,-8.84472E-05
163.8008,-8.837468E-05
163.9008,-8.834832E-05
164.0008,-8.829841E-05
164.1008,-8.824756E-05
164.2008,-8.821083E-05
164.3008,-8.812889E-05
164.4008,-8.806109E-05
164.5008,-8.80545E-05
164.6008,-8.798764E-05
164.7009,-8.79349E-05
164.8009,-8.790288E-05
164.9009,-8.786144E-05
165.0009,-8.780399E-05
165.1009,-8.774843E-05
165.2009,-8.768911E-05
165.3009,-8.763825E-05
165.4009,-8.761376E-05
165.5009,-8.75422E-05
165.6009,-8.751394E-05
165.7009,-8.746874E-05
165.8009,-8.737457E-05
165.9009,-8.736986E-05
166.0009,-8.738399E-05
166.1009,-8.730488E-05
166.2009,-8.723613E-05
166.3009,-8.718246E-05
166.401,-8.714007E-05
166.501,-8.708545E-05
166.601,-8.702613E-05
166.701,-8.697622E-05
166.801,-8.691029E-05
166.901,-8.690276E-05
167.001,-8.682741E-05
167.101,-8.674925E-05
167.201,-8.674925E-05
167.301,-8.669464E-05
167.401,-8.663248E-05
167.501,-8.659387E-05
167.601,-8.654301E-05
167.701,-8.646485E-05
167.801,-8.642624E-05
167.901,-8.639706E-05
168.0011,-8.634714E-05
168.1011,-8.632548E-05
168.2011,-8.626897E-05
168.3011,-8.617197E-05
168.4011,-8.616821E-05
168.5011,-8.613054E-05
168.6011,-8.606745E-05
168.7011,-8.59874E-05
168.8011,-8.596951E-05
168.9011,-8.590076E-05
169.0011,-8.585933E-05
169.1011,-8.581223E-05
169.2011,-8.57595E-05
169.3011,-8.569923E-05
169.4011,-8.565214E-05
169.5011,-8.559847E-05
169.6012,-8.555891E-05
169.7012,-8.552407E-05
169.8012,-8.544966E-05
169.9012,-8.538093E-05
170.0012,-8.535079E-05
170.1012,-8.531594E-05
170.2012,-8.527638E-05
170.3012,-8.522742E-05
170.4012,-8.514172E-05
170.5012,-8.512571E-05
170.6012,-8.509558E-05
170.7012,-8.503908E-05
170.8012,-8.494584E-05
170.9012,-8.496751E-05
171.0012,-8.492418E-05
171.1012,-8.482059E-05
171.2012,-8.476221E-05
171.3013,-8.473113E-05
171.4013,-8.463695E-05
171.5013,-8.463695E-05
171.6013,-8.458799E-05
171.7013,-8.453242E-05
171.8013,-8.44731E-05
171.9013,-8.44147E-05
172.0013,-8.437327E-05
172.1013,-8.435726E-05
172.2013,-8.430264E-05
172.3013,-8.422731E-05
172.4013,-8.417174E-05
172.5013,-8.415196E-05
172.6013,-8.409923E-05
172.7013,-8.406344E-05
172.8013,-8.399281E-05
172.9014,-8.394007E-05
173.0014,-8.391936E-05
173.1014,-8.386191E-05
173.2014,-8.381388E-05
173.3014,-8.379504E-05
173.4014,-8.375738E-05
173.5014,-8.36811E-05
173.6014,-8.365002E-05
173.7014,-8.358221E-05
173.8014,-8.351347E-05
173.9014,-8.350876E-05
174.0014,-8.345602E-05
174.1014,-8.337975E-05
174.2014,-8.334866E-05
174.3014,-8.332229E-05
174.4014,-8.326203E-05
174.5014,-8.322059E-05
174.6015,-8.317821E-05
174.7015,-8.310758E-05
174.8015,-8.309534E-05
174.9015,-8.30426E-05
175.0015,-8.293148E-05
175.1015,-8.294278E-05
175.2015,-8.292959E-05
175.3015,-8.283542E-05
175.4015,-8.280811E-05
175.5015,-8.278174E-05
175.6015,-8.270358E-05
175.7015,-8.269416E-05
175.8015,-8.264989E-05
175.9015,-8.257457E-05
176.0015,-8.255384E-05
176.1015,-8.253972E-05
176.2016,-8.246344E-05
176.3016,-8.242294E-05
176.4016,-8.238622E-05
176.5016,-8.234289E-05
176.6016,-8.233253E-05
176.7016,-8.22798E-05
176.8016,-8.221576E-05
176.9016,-8.216491E-05
177.0016,-8.217055E-05
177.1016,-8.208297E-05
177.2016,-8.20472E-05
177.3016,-8.201518E-05
177.4016,-8.194643E-05
177.5016,-8.196149E-05
177.6016,-8.19144E-05
177.7016,-8.180234E-05
177.8017,-8.178351E-05
177.9017,-8.177409E-05
178.0017,-8.172607E-05
178.1017,-8.165732E-05
178.2017,-8.163095E-05
178.3017,-8.158197E-05
178.4017,-8.15914E-05
178.5017,-8.153301E-05
178.6017,-8.143695E-05
178.7017,-8.142094E-05
178.8017,-8.14153E-05
178.9017,-8.135031E-05
179.0017,-8.130417E-05
179.1017,-8.126085E-05
179.2017,-8.123637E-05
179.3017,-8.119587E-05
179.4017,-8.115161E-05
179.5018,-8.109416E-05
179.6018,-8.108193E-05
179.7018,-8.103389E-05
179.8018,-8.09708E-05
179.9018,-8.097456E-05
180.0018,-8.091429E-05
180.1018,-8.087097E-05
180.2018,-8.081541E-05
180.3018,-8.077303E-05
180.4018,-8.076079E-05
180.5018,-8.07137E-05
180.6018,-8.066002E-05
180.7018,-8.059692E-05
180.8018,-8.055173E-05
180.9018,-8.049804E-05
181.0018,-8.045002E-05
181.1019,-8.04293E-05
181.2019,-8.041517E-05
181.3019,-8.034642E-05
181.4019,-8.032289E-05
181.5019,-8.027674E-05
181.6019,-8.023625E-05
181.7019,-8.021459E-05
181.8019,-8.017691E-05
181.9019,-8.014583E-05
182.0019,-8.009687E-05
182.1019,-8.007897E-05
182.2019,-8.003E-05
182.3019,-7.997444E-05
182.4019,-7.994148E-05
182.5019,-7.988968E-05
182.6019,-7.98426E-05
182.702,-7.983036E-05
182.802,-7.978798E-05
182.902,-7.973242E-05
183.002,-7.969098E-05
183.102,-7.965708E-05
183.202,-7.96147E-05
183.302,-7.959869E-05
183.402,-7.953183E-05
183.502,-7.94791E-05
183.602,-7.9513E-05
183.702,-7.946779E-05
183.802,-7.940187E-05
183.902,-7.936797E-05
184.002,-7.93369E-05
184.102,-7.926815E-05
184.202,-7.922483E-05
184.302,-7.920505E-05
184.4021,-7.914478E-05
184.5021,-7.914949E-05
184.6021,-7.910334E-05
184.7021,-7.902989E-05
184.8021,-7.902141E-05
184.9021,-7.894984E-05
185.0021,-7.891782E-05
185.1021,-7.890746E-05
185.2021,-7.883401E-05
185.3021,-7.881894E-05
185.4021,-7.881706E-05
185.5021,-7.878598E-05
185.6021,-7.871723E-05
185.7021,-7.867768E-05
185.8021,-7.863719E-05
185.9021,-7.861647E-05
186.0022,-7.857974E-05
186.1022,-7.854301E-05
186.2022,-7.84997E-05
186.3022,-7.848557E-05
186.4022,-7.844695E-05
186.5022,-7.838385E-05
186.6022,-7.833677E-05
186.7022,-7.834243E-05
186.8022,-7.828968E-05
186.9022,-7.824261E-05
187.0022,-7.822282E-05
187.1022,-7.819928E-05
187.2022,-7.81682E-05
187.3022,-7.809757E-05
187.4022,-7.805332E-05
187.5022,-7.801376E-05
187.6022,-7.799963E-05
187.7023,-7.792806E-05
187.8023,-7.78838E-05
187.9023,-7.788756E-05
188.0023,-7.784236E-05
188.1023,-7.779622E-05
188.2023,-7.777362E-05
188.3023,-7.775761E-05
188.4023,-7.767285E-05
188.5023,-7.764648E-05
188.6023,-7.760599E-05
188.7023,-7.754478E-05
188.8023,-7.751935E-05
188.9023,-7.748451E-05
189.0023,-7.746002E-05
189.1023,-7.743177E-05
189.2023,-7.735831E-05
189.3024,-7.732723E-05
189.4024,-7.732723E-05
189.5024,-7.728109E-05
189.6024,-7.724907E-05
189.7024,-7.720952E-05
189.8024,-7.716808E-05
189.9024,-7.715866E-05
190.0024,-7.708991E-05
190.1024,-7.704189E-05
190.2024,-7.702023E-05
190.3024,-7.700705E-05
190.4024,-7.695526E-05
190.5024,-7.691381E-05
190.6024,-7.687145E-05
190.7024,-7.685449E-05
190.8024,-7.682246E-05
190.9025,-7.676408E-05
191.0025,-7.670664E-05
191.1025,-7.668403E-05
191.2025,-7.667839E-05
191.3025,-7.662188E-05
191.4025,-7.656631E-05
191.5025,-7.655219E-05
191.6025,-7.652018E-05
191.7025,-7.647497E-05
191.8025,-7.645519E-05
191.9025,-7.640057E-05
192.0025,-7.636667E-05
192.1025,-7.6329E-05
192.2025,-7.629416E-05
192.3025,-7.626025E-05
192.4025,-7.622071E-05
192.5025,-7.619528E-05
192.6026,-7.615007E-05
192.7026,-7.610863E-05
192.8026,-7.607379E-05
192.9026,-7.605496E-05
193.0026,-7.602011E-05
193.1026,-7.594007E-05
193.2026,-7.592029E-05
193.3026,-7.5941E-05
193.4026,-7.589109E-05
193.5026,-7.581764E-05
193.6026,-7.57875E-05
193.7026,-7.575643E-05
193.8026,-7.573854E-05
193.9026,-7.569051E-05
194.0026,-7.566132E-05
194.1026,-7.559916E-05
194.2027,-7.559445E-05
194.3027,-7.556526E-05
194.4027,-7.551064E-05
194.5027,-7.546638E-05
194.6027,-7.544095E-05
194.7027,-7.539668E-05
194.8027,-7.537032E-05
194.9027,-7.532982E-05
195.0027,-7.529026E-05
195.1027,-7.529875E-05
195.2027,-7.52526E-05
195.3027,-7.518763E-05
195.4027,-7.517538E-05
195.5027,-7.51669E-05
195.6027,-7.512076E-05
195.7027,-7.506991E-05
195.8027,-7.504448E-05
195.9028,-7.502753E-05
196.0028,-7.498421E-05
196.1028,-7.49569E-05
196.2028,-7.489757E-05
196.3028,-7.488156E-05
196.4028,-7.485048E-05
196.5028,-7.479586E-05
196.6028,-7.477232E-05
196.7028,-7.475442E-05
196.8028,-7.469227E-05
196.9028,-7.467155E-05
197.0028,-7.464707E-05
197.1028,-7.461222E-05
197.2028,-7.460187E-05
197.3028,-7.455101E-05
197.4028,-7.451994E-05
197.5029,-7.446343E-05
197.6029,-7.44559E-05
197.7029,-7.442294E-05
197.8029,-7.437961E-05
197.9029,-7.434195E-05
198.0029,-7.429392E-05
198.1029,-7.426567E-05
198.2029,-7.423836E-05
198.3029,-7.420351E-05
198.4029,-7.42007E-05
198.5029,-7.413853E-05
198.6029,-7.40792E-05
198.7029,-7.408391E-05
198.8029,-7.405472E-05
198.9029,-7.400575E-05
199.0029,-7.395584E-05
199.103,-7.394548E-05
199.203,-7.390969E-05
199.303,-7.384942E-05
199.403,-7.383341E-05
199.503,-7.37835E-05
199.603,-7.374582E-05
199.703,-7.372888E-05
199.803,-7.366296E-05
199.903,-7.364601E-05
200.003,-7.365542E-05
200.103,-7.361494E-05
200.203,-7.354242E-05
200.303,-7.35104E-05
200.403,-7.348403E-05
200.503,-7.345013E-05
200.603,-7.344448E-05
200.703,-7.339268E-05
200.8031,-7.331451E-05
200.9031,-7.33164E-05
201.0031,-7.327308E-05
201.1031,-7.324483E-05
201.2031,-7.322599E-05
201.3031,-7.31742E-05
201.4031,-7.311958E-05
201.5031,-7.310357E-05
201.6031,-7.308097E-05
201.7031,-7.30273E-05
201.8031,-7.30207E-05
201.9031,-7.295854E-05
202.0031,-7.292841E-05
202.1031,-7.292652E-05
202.2031,-7.290582E-05
202.3031,-7.285119E-05
202.4032,-7.27994E-05
202.5032,-7.277679E-05
202.6032,-7.272029E-05
202.7032,-7.272029E-05
202.8032,-7.270145E-05
202.9032,-7.266096E-05
203.0032,-7.260351E-05
203.1032,-7.257808E-05
203.2032,-7.255549E-05
203.3032,-7.253476E-05
203.4032,-7.249521E-05
203.5032,-7.244342E-05
203.6032,-7.241517E-05
203.7032,-7.237373E-05
203.8032,-7.234736E-05
203.9032,-7.231723E-05
204.0033,-7.229651E-05
204.1033,-7.227767E-05
204.2033,-7.225507E-05
204.3033,-7.220422E-05
204.4033,-7.215054E-05
204.5033,-7.21317E-05
204.6033,-7.213735E-05
204.7033,-7.206484E-05
204.8033,-7.204412E-05
204.9033,-7.201116E-05
205.0033,-7.196973E-05
205.1033,-7.19622E-05
205.2033,-7.193864E-05
205.3033,-7.190758E-05
205.4033,-7.186425E-05
205.5033,-7.184166E-05
205.6033,-7.178797E-05
205.7034,-7.180775E-05
205.8034,-7.178231E-05
205.9034,-7.172487E-05
206.0034,-7.169568E-05
206.1034,-7.168532E-05
206.2034,-7.163823E-05
206.3034,-7.16307E-05
206.4034,-7.159586E-05
206.5034,-7.153276E-05
206.6034,-7.154783E-05
206.7034,-7.152899E-05
206.8034,-7.147437E-05
206.9034,-7.143105E-05
207.0034,-7.142635E-05
207.1034,-7.139621E-05
207.2034,-7.136419E-05
207.3035,-7.132653E-05
207.4035,-7.127284E-05
207.5035,-7.12719E-05
207.6035,-7.126154E-05
207.7035,-7.121634E-05
207.8035,-7.118809E-05
207.9035,-7.117773E-05
208.0035,-7.112217E-05
208.1035,-7.112217E-05
208.2035,-7.110993E-05
208.3035,-7.103458E-05
208.4035,-7.102894E-05
208.5035,-7.100257E-05
208.6035,-7.097432E-05
208.7035,-7.094795E-05
208.8035,-7.092629E-05
208.9035,-7.08566E-05
209.0036,-7.088202E-05
209.1036,-7.083589E-05
209.2036,-7.079633E-05
209.3036,-7.08048E-05
209.4036,-7.074831E-05
209.5036,-7.069745E-05
209.6036,-7.070215E-05
209.7036,-7.067108E-05
209.8036,-7.062116E-05
209.9036,-7.062776E-05
210.0036,-7.062305E-05
210.1036,-7.056278E-05
210.2036,-7.057691E-05
210.3036,-7.052512E-05
210.4036,-7.047708E-05
210.5036,-7.046484E-05
210.6037,-7.041116E-05
210.7037,-7.037631E-05
210.8037,-7.033582E-05
210.9037,-7.033489E-05
211.0037,-7.031322E-05
211.1037,-7.031699E-05
211.2037,-7.028026E-05
211.3037,-7.022941E-05
211.4037,-7.022281E-05
211.5037,-7.018797E-05
211.6037,-7.015218E-05
211.7037,-7.012205E-05
211.8037,-7.011263E-05
211.9037,-7.007496E-05
212.0037,-7.003164E-05
212.1037,-7.000904E-05
212.2038,-6.996761E-05
212.3038,-6.997419E-05
212.4038,-6.995536E-05
212.5038,-6.989697E-05
212.6038,-6.985648E-05
212.7038,-6.984801E-05
212.8038,-6.981504E-05
212.9038,-6.979716E-05
213.0038,-6.976608E-05
213.1038,-6.973217E-05
213.2038,-6.969262E-05
213.3038,-6.969638E-05
213.4038,-6.965778E-05
213.5038,-6.963329E-05
213.6038,-6.960316E-05
213.7038,-6.954854E-05
213.8038,-6.953158E-05
213.9039,-6.952405E-05
214.0039,-6.950615E-05
214.1039,-6.94553E-05
214.2039,-6.942612E-05
214.3039,-6.938844E-05
214.4039,-6.938373E-05
214.5039,-6.936395E-05
214.6039,-6.932911E-05
214.7039,-6.929239E-05
214.8039,-6.927919E-05
214.9039,-6.924059E-05
215.0039,-6.920481E-05
215.1039,-6.918691E-05
215.2039,-6.915678E-05
215.3039,-6.913982E-05
215.4039,-6.912193E-05
215.504,-6.909273E-05
215.604,-6.903152E-05
215.704,-6.903341E-05
215.804,-6.902399E-05
215.904,-6.899291E-05
216.004,-6.895995E-05
216.104,-6.892793E-05
216.204,-6.889968E-05
216.304,-6.889027E-05
216.404,-6.885636E-05
216.504,-6.881305E-05
216.604,-6.879515E-05
216.704,-6.877536E-05
216.804,-6.873205E-05
216.904,-6.873017E-05
217.004,-6.871887E-05
217.104,-6.866518E-05
217.2041,-6.864071E-05
217.3041,-6.860586E-05
217.4041,-6.857573E-05
217.5041,-6.857666E-05
217.6041,-6.855217E-05
217.7041,-6.849945E-05
217.8041,-6.847214E-05
217.9041,-6.844859E-05
218.0041,-6.840244E-05
218.1041,-6.842693E-05
218.2041,-6.838738E-05
218.3041,-6.831392E-05
218.4041,-6.832617E-05
218.5041,-6.833653E-05
218.6041,-6.828473E-05
218.7041,-6.821221E-05
218.8042,-6.822257E-05
218.9042,-6.818584E-05
219.0042,-6.819433E-05
219.1042,-6.815195E-05
219.2042,-6.810487E-05
219.3042,-6.810487E-05
219.4042,-6.806813E-05
219.5042,-6.801257E-05
219.6042,-6.800881E-05
219.7042,-6.799656E-05
219.8042,-6.794947E-05
219.9042,-6.794665E-05
220.0042,-6.789863E-05
220.1042,-6.787413E-05
220.2042,-6.786849E-05
220.3042,-6.783834E-05
220.4043,-6.779126E-05
220.5043,-6.779221E-05
220.6043,-6.774701E-05
220.7043,-6.771876E-05
220.8043,-6.772157E-05
220.9043,-6.769332E-05
221.0043,-6.764906E-05
221.1043,-6.763305E-05
221.2043,-6.75982E-05
221.3043,-6.756336E-05
221.4043,-6.75483E-05
221.5043,-6.751911E-05
221.6043,-6.749933E-05
221.7043,-6.749838E-05
221.8043,-6.746448E-05
221.9043,-6.743247E-05
222.0043,-6.740327E-05
222.1044,-6.739291E-05
222.2044,-6.737408E-05
222.3044,-6.733829E-05
222.4044,-6.731663E-05
222.5044,-6.727614E-05
222.6044,-6.727143E-05
222.7044,-6.726108E-05
222.8044,-6.721775E-05
222.9044,-6.719232E-05
223.0044,-6.71848E-05
223.1044,-6.713017E-05
223.2044,-6.711886E-05
223.3044,-6.71151E-05
223.4044,-6.703883E-05
223.5044,-6.703317E-05
223.6044,-6.704729E-05
223.7045,-6.701528E-05
223.8045,-6.700021E-05
223.9045,-6.695218E-05
224.0045,-6.693052E-05
224.1045,-6.692958E-05
224.2045,-6.690321E-05
224.3045,-6.682693E-05
224.4045,-6.677984E-05
224.5045,-6.677231E-05
224.6045,-6.676855E-05
224.7045,-6.673559E-05
224.8045,-6.671016E-05
224.9045,-6.66998E-05
225.0045,-6.670639E-05
225.1045,-6.668285E-05
225.2045,-6.662351E-05
225.3046,-6.664517E-05
225.4046,-6.664517E-05
225.5046,-6.661127E-05
225.6046,-6.655383E-05
225.7046,-6.658019E-05
225.8046,-6.654441E-05
225.9046,-6.651804E-05
226.0046,-6.648979E-05
226.1046,-6.645307E-05
226.2046,-6.642387E-05
226.3046,-6.644742E-05
226.4046,-6.639468E-05
226.5046,-6.634947E-05
226.6046,-6.639656E-05
226.7046,-6.639373E-05
226.8046,-6.632593E-05
226.9046,-6.627602E-05
227.0047,-6.627131E-05
227.1047,-6.625248E-05
227.2047,-6.624305E-05
227.3047,-6.623647E-05
227.4047,-6.618373E-05
227.5047,-6.61809E-05
227.6047,-6.612722E-05
227.7047,-6.612346E-05
227.8047,-6.615453E-05
227.9047,-6.61244E-05
228.0047,-6.605376E-05
228.1047,-6.605754E-05
228.2047,-6.60274E-05
228.3047,-6.59935E-05
228.4047,-6.599821E-05
228.5047,-6.59709E-05
228.6048,-6.591722E-05
228.7048,-6.591817E-05
228.8048,-6.591062E-05
228.9048,-6.584282E-05
229.0048,-6.582775E-05
229.1048,-6.581363E-05
229.2048,-6.577879E-05
229.3048,-6.579102E-05
229.4048,-6.574959E-05
229.5048,-6.569215E-05
229.6048,-6.571945E-05
229.7048,-6.571098E-05
229.8048,-6.564223E-05
229.9048,-6.563282E-05
230.0048,-6.560268E-05
230.1048,-6.558478E-05
230.2048,-6.558667E-05
230.3049,-6.553959E-05
230.4049,-6.549533E-05
230.5049,-6.551039E-05
230.6049,-6.549155E-05
230.7049,-6.544824E-05
230.8049,-6.54181E-05
230.9049,-6.540303E-05
231.0049,-6.539832E-05
231.1049,-6.540586E-05
231.2049,-6.535312E-05
231.3049,-6.532016E-05
231.4049,-6.530697E-05
231.5049,-6.529567E-05
231.6049,-6.526837E-05
231.7049,-6.523258E-05
231.8049,-6.52015E-05
231.905,-6.517608E-05
232.005,-6.517137E-05
232.105,-6.516101E-05
232.205,-6.510639E-05
232.305,-6.509603E-05
232.405,-6.50706E-05
232.505,-6.504801E-05
232.605,-6.502635E-05
232.705,-6.502635E-05
232.805,-6.49689E-05
232.905,-6.495665E-05
233.005,-6.49463E-05
233.105,-6.494723E-05
233.205,-6.493123E-05
233.305,-6.488885E-05
233.405,-6.485777E-05
233.5051,-6.483329E-05
233.6051,-6.478713E-05
233.7051,-6.47862E-05
233.8051,-6.47702E-05
233.9051,-6.475889E-05
234.0051,-6.470333E-05
234.1051,-6.47184E-05
234.2051,-6.468825E-05
234.3051,-6.462987E-05
234.4051,-6.46327E-05
234.5051,-6.464212E-05
234.6051,-6.461763E-05
234.7051,-6.455641E-05
234.8051,-6.454323E-05
234.9051,-6.451969E-05
235.0051,-6.448673E-05
235.1051,-6.448296E-05
235.2052,-6.447731E-05
235.3052,-6.444717E-05
235.4052,-6.439915E-05
235.5052,-6.437372E-05
235.6052,-6.439068E-05
235.7052,-6.43822E-05
235.8052,-6.434359E-05
235.9052,-6.430121E-05
236.0052,-6.425506E-05
236.1052,-6.426919E-05
236.2052,-6.424094E-05
236.3052,-6.421174E-05
236.4052,-6.417219E-05
236.5052,-6.414299E-05
236.6052,-6.413829E-05
236.7052,-6.413358E-05
236.8053,-6.409591E-05
236.9053,-6.408084E-05
237.0053,-6.404411E-05
237.1053,-6.399515E-05
237.2053,-6.401398E-05
237.3053,-6.39895E-05
237.4053,-6.395747E-05
237.5053,-6.393676E-05
237.6053,-6.38859E-05
237.7053,-6.389721E-05
237.8053,-6.39038E-05
237.9053,-6.38407E-05
238.0053,-6.378514E-05
238.1053,-6.378985E-05
238.2053,-6.378703E-05
238.3053,-6.373994E-05
238.4053,-6.372957E-05
238.5054,-6.368531E-05
238.6054,-6.368908E-05
238.7054,-6.369568E-05
238.8054,-6.363446E-05
238.9054,-6.359303E-05
239.0054,-6.359397E-05
239.1054,-6.357607E-05
239.2054,-6.352239E-05
239.3054,-6.351486E-05
239.4054,-6.350074E-05
239.5054,-6.346401E-05
239.6054,-6.346495E-05
239.7054,-6.342728E-05
239.8054,-6.339809E-05
239.9054,-6.339903E-05
240.0054,-6.337737E-05
240.1055,-6.333217E-05
240.2055,-6.333217E-05
240.3055,-6.330862E-05
240.4055,-6.328319E-05
240.5055,-6.326624E-05
240.6055,-6.323799E-05
240.7055,-6.319751E-05
240.8055,-6.319844E-05
240.9055,-6.31749E-05
241.0055,-6.312216E-05
241.1055,-6.313441E-05
241.2055,-6.309296E-05
241.3055,-6.30487E-05
241.4055,-6.304494E-05
241.5055,-6.305154E-05
241.6055,-6.300727E-05
241.7056,-6.30035E-05
241.8056,-6.296489E-05
241.9056,-6.293287E-05
242.0056,-6.292722E-05
242.1056,-6.288673E-05
242.2056,-6.288013E-05
242.3056,-6.285094E-05
242.4056,-6.285094E-05
242.5056,-6.279443E-05
242.6056,-6.275865E-05
242.7056,-6.275959E-05
242.8056,-6.272663E-05
242.9056,-6.272098E-05
243.0056,-6.270026E-05
243.1056,-6.266071E-05
243.2056,-6.265506E-05
243.3056,-6.264094E-05
243.4057,-6.261739E-05
243.5057,-6.257878E-05
243.6057,-6.25703E-05
243.7057,-6.252227E-05
243.8057,-6.254488E-05
243.9057,-6.252981E-05
244.0057,-6.248084E-05
244.1057,-6.245071E-05
244.2057,-6.244505E-05
244.3057,-6.242246E-05
244.4057,-6.241398E-05
244.5057,-6.238761E-05
244.6057,-6.234994E-05
244.7057,-6.231604E-05
244.8057,-6.230568E-05
244.9057,-6.229344E-05
245.0058,-6.227554E-05
245.1058,-6.227554E-05
245.2058,-6.22115E-05
245.3058,-6.22294E-05
245.4058,-6.221244E-05
245.5058,-6.215783E-05
245.6058,-6.213617E-05
245.7058,-6.211733E-05
245.8058,-6.209944E-05
245.9058,-6.209756E-05
246.0058,-6.20646E-05
246.1058,-6.20241E-05
246.2058,-6.20015E-05
246.3058,-6.200056E-05
246.4058,-6.197325E-05
246.5058,-6.195818E-05
246.6059,-6.195535E-05
246.7059,-6.190168E-05
246.8059,-6.187248E-05
246.9059,-6.192428E-05
247.0059,-6.188755E-05
247.1059,-6.182539E-05
247.2059,-6.18141E-05
247.3059,-6.179808E-05
247.4059,-6.179149E-05
247.5059,-6.17849E-05
247.6059,-6.174252E-05
247.7059,-6.17171E-05
247.8059,-6.170956E-05
247.9059,-6.167566E-05
248.0059,-6.165211E-05
248.1059,-6.164647E-05
248.2059,-6.161915E-05
248.306,-6.159562E-05
248.406,-6.158714E-05
248.506,-6.157113E-05
248.606,-6.149956E-05
248.706,-6.156642E-05
248.806,-6.151839E-05
248.906,-6.147224E-05
249.006,-6.147507E-05
249.106,-6.144305E-05
249.206,-6.140915E-05
249.306,-6.140162E-05
249.406,-6.140067E-05
249.506,-6.1363E-05
249.606,-6.134794E-05
249.706,-6.132534E-05
249.806,-6.128578E-05
249.9061,-6.128767E-05
250.0061,-6.124529E-05
250.1061,-6.121798E-05
250.2061,-6.124811E-05
250.3061,-6.121045E-05
250.4061,-6.114452E-05
250.5061,-6.118407E-05
250.6061,-6.1153E-05
250.7061,-6.113228E-05
250.8061,-6.111627E-05
250.9061,-6.106636E-05
251.0061,-6.102775E-05
251.1061,-6.103905E-05
251.2061,-6.104376E-05
251.3061,-6.099761E-05
251.4061,-6.097407E-05
251.5061,-6.095429E-05
251.6062,-6.094582E-05
251.7062,-6.096466E-05
251.8062,-6.091757E-05
251.9062,-6.086577E-05
252.0062,-6.087236E-05
252.1062,-6.087613E-05
252.2062,-6.082622E-05
252.3062,-6.08234E-05
252.4062,-6.078573E-05
252.5062,-6.075371E-05
252.6062,-6.076124E-05
252.7062,-6.075371E-05
252.8062,-6.070568E-05
252.9062,-6.070003E-05
253.0062,-6.066612E-05
253.1062,-6.063599E-05
253.2063,-6.064729E-05
253.3063,-6.063316E-05
253.4063,-6.058043E-05
253.5063,-6.058419E-05
253.6063,-6.054558E-05
253.7063,-6.051545E-05
253.8063,-6.051451E-05
253.9063,-6.04872E-05
254.0063,-6.046271E-05
254.1063,-6.0458E-05
254.2063,-6.043258E-05
254.3063,-6.038172E-05
254.4063,-6.040432E-05
254.5063,-6.039585E-05
254.6063,-6.034876E-05
254.7063,-6.034593E-05
254.8064,-6.030827E-05
254.9064,-6.027342E-05
255.0064,-6.031015E-05
255.1064,-6.024705E-05
255.2064,-6.024894E-05
255.3064,-6.022539E-05
255.4064,-6.020844E-05
255.5064,-6.017642E-05
255.6064,-6.016324E-05
255.7064,-6.014817E-05
255.8064,-6.011897E-05
255.9064,-6.010297E-05
256.0064,-6.008414E-05
256.1064,-6.004176E-05
256.2064,-6.007472E-05
256.3064,-6.002575E-05
256.4064,-5.998337E-05
256.5064,-6.000032E-05
256.6064,-5.996359E-05
256.7065,-5.993722E-05
256.8065,-5.992027E-05
256.9065,-5.989862E-05
257.0065,-5.98892E-05
257.1065,-5.98826E-05
257.2065,-5.986094E-05
257.3065,-5.983834E-05
257.4065,-5.98261E-05
257.5065,-5.981103E-05
257.6065,-5.976865E-05
257.7065,-5.975358E-05
257.8065,-5.972533E-05
257.9065,-5.97178E-05
258.0065,-5.970744E-05
258.1065,-5.967731E-05
258.2065,-5.963493E-05
258.3065,-5.963775E-05
258.4066,-5.960479E-05
258.5066,-5.957843E-05
258.6066,-5.958502E-05
258.7066,-5.956053E-05
258.8066,-5.950874E-05
258.9066,-5.950591E-05
259.0066,-5.952851E-05
259.1066,-5.949932E-05
259.2066,-5.949367E-05
259.3066,-5.943811E-05
259.4066,-5.941833E-05
259.5066,-5.940703E-05
259.6066,-5.940514E-05
259.7066,-5.935523E-05
259.8066,-5.93477E-05
259.9066,-5.933357E-05
260.0067,-5.929873E-05
260.1067,-5.929779E-05
260.2067,-5.92959E-05
260.3067,-5.926106E-05
260.4067,-5.925729E-05
260.5067,-5.923281E-05
260.6067,-5.91716E-05
260.7067,-5.918949E-05
260.8067,-5.917348E-05
260.9067,-5.914146E-05
261.0067,-5.913487E-05
261.1067,-5.910944E-05
261.2067,-5.909343E-05
261.3067,-5.909814E-05
261.4067,-5.909155E-05
261.5067,-5.901527E-05
261.6068,-5.900867E-05
261.7068,-5.900962E-05
261.8068,-5.898608E-05
261.9068,-5.89663E-05
262.0068,-5.895688E-05
262.1068,-5.893334E-05
262.2068,-5.892204E-05
262.3068,-5.888908E-05
262.4068,-5.885706E-05
262.5068,-5.887684E-05
262.6068,-5.884952E-05
262.7068,-5.877607E-05
262.8068,-5.884293E-05
262.9068,-5.883257E-05
263.0068,-5.881468E-05
263.1068,-5.876194E-05
263.2068,-5.874028E-05
263.3069,-5.875347E-05
263.4069,-5.872239E-05
263.5069,-5.870167E-05
263.6069,-5.866401E-05
263.7069,-5.866589E-05
263.8069,-5.866495E-05
263.9069,-5.862728E-05
264.0069,-5.859244E-05
264.1069,-5.857548E-05
264.2069,-5.856983E-05
264.3069,-5.857266E-05
264.4069,-5.854346E-05
264.5069,-5.851333E-05
264.6069,-5.848413E-05
264.7069,-5.850202E-05
264.8069,-5.847189E-05
264.907,-5.845588E-05
265.007,-5.844458E-05
265.107,-5.841539E-05
265.207,-5.840032E-05
265.307,-5.841068E-05
265.407,-5.837301E-05
265.507,-5.835794E-05
265.607,-5.834005E-05
265.707,-5.831274E-05
265.807,-5.833063E-05
265.907,-5.832027E-05
266.007,-5.828166E-05
266.107,-5.827036E-05
266.207,-5.825247E-05
266.307,-5.824211E-05
266.407,-5.82148E-05
266.507,-5.822045E-05
266.6071,-5.81969E-05
266.7071,-5.817807E-05
266.8071,-5.817242E-05
266.9071,-5.813004E-05
267.0071,-5.813098E-05
267.1071,-5.813475E-05
267.2071,-5.811026E-05
267.3071,-5.808013E-05
267.4071,-5.805941E-05
267.5071,-5.803681E-05
267.6071,-5.803116E-05
267.7071,-5.800385E-05
267.8071,-5.799537E-05
267.9071,-5.800197E-05
268.0071,-5.798878E-05
268.1071,-5.796524E-05
268.2072,-5.795582E-05
268.3072,-5.791815E-05
268.4072,-5.789932E-05
268.5072,-5.790402E-05
268.6072,-5.790402E-05
268.7072,-5.785129E-05
268.8072,-5.783528E-05
268.9072,-5.78334E-05
269.0072,-5.779384E-05
269.1072,-5.781739E-05
269.2072,-5.780326E-05
269.3072,-5.773734E-05
269.4072,-5.774581E-05
269.5072,-5.775806E-05
269.6072,-5.773452E-05
269.7072,-5.770626E-05
269.8073,-5.767707E-05
269.9073,-5.767236E-05
270.0073,-5.768272E-05
270.1073,-5.766106E-05
270.2073,-5.761398E-05
270.3073,-5.760173E-05
270.4073,-5.75876E-05
270.5073,-5.754711E-05
270.6073,-5.754711E-05
270.7073,-5.755182E-05
270.8073,-5.749531E-05
270.9073,-5.751227E-05
271.0073,-5.751697E-05
271.1073,-5.746612E-05
271.2073,-5.744917E-05
271.3073,-5.744352E-05
271.4073,-5.740208E-05
271.5074,-5.738607E-05
271.6074,-5.73889E-05
271.7074,-5.737195E-05
271.8074,-5.736159E-05
271.9074,-5.733239E-05
272.0074,-5.731167E-05
272.1074,-5.730603E-05
272.2074,-5.729378E-05
272.3074,-5.726082E-05
272.4074,-5.727683E-05
272.5074,-5.726271E-05
272.6074,-5.724482E-05
272.7074,-5.722221E-05
272.8074,-5.721185E-05
272.9074,-5.719773E-05
273.0074,-5.719114E-05
273.1075,-5.715535E-05
273.2075,-5.712427E-05
273.3075,-5.710921E-05
273.4075,-5.710732E-05
273.5075,-5.706023E-05
273.6075,-5.707813E-05
273.7075,-5.706588E-05
273.8075,-5.701409E-05
273.9075,-5.700656E-05
274.0075,-5.698678E-05
274.1075,-5.696983E-05
274.2075,-5.695099E-05
274.3075,-5.695382E-05
274.4075,-5.692933E-05
274.5075,-5.689167E-05
274.6075,-5.690579E-05
274.7076,-5.686624E-05
274.8076,-5.685776E-05
274.9076,-5.684552E-05
275.0076,-5.680785E-05
275.1076,-5.68135E-05
275.2076,-5.682009E-05
275.3076,-5.67796E-05
275.4076,-5.674946E-05
275.5076,-5.675982E-05
275.6076,-5.672027E-05
275.7076,-5.671744E-05
275.8076,-5.671933E-05
275.9076,-5.667601E-05
276.0076,-5.665811E-05
276.1076,-5.666094E-05
276.2076,-5.666565E-05
276.3076,-5.663834E-05
276.4077,-5.66148E-05
276.5077,-5.658654E-05
276.6077,-5.654982E-05
276.7077,-5.656017E-05
276.8077,-5.657054E-05
276.9077,-5.653663E-05
277.0077,-5.652533E-05
277.1077,-5.649237E-05
277.2077,-5.648201E-05
277.3077,-5.646882E-05
277.4077,-5.644905E-05
277.5077,-5.643304E-05
277.6077,-5.643681E-05
277.7077,-5.642174E-05
277.8077,-5.6369E-05
277.9077,-5.637748E-05
278.0078,-5.635676E-05
278.1078,-5.633887E-05
278.2078,-5.634075E-05
278.3078,-5.631438E-05
278.4078,-5.627483E-05
278.5078,-5.628142E-05
278.6078,-5.626541E-05
278.7078,-5.62334E-05
278.8078,-5.624846E-05
278.9078,-5.619196E-05
279.0078,-5.617594E-05
279.1078,-5.622303E-05
279.2078,-5.621833E-05
279.3078,-5.615052E-05
279.4078,-5.613074E-05
279.5078,-5.612321E-05
279.6078,-5.610249E-05
279.7079,-5.611474E-05
279.8079,-5.608554E-05
279.9079,-5.606577E-05
280.0079,-5.604693E-05
280.1079,-5.60507E-05
280.2079,-5.602904E-05
280.3079,-5.601586E-05
280.4079,-5.600079E-05
280.5079,-5.595558E-05
280.6079,-5.598572E-05
280.7079,-5.598384E-05
280.8079,-5.592733E-05
280.9079,-5.591509E-05
281.0079,-5.590284E-05
281.1079,-5.590661E-05
281.2079,-5.590755E-05
281.308,-5.584634E-05
281.408,-5.583033E-05
281.508,-5.587271E-05
281.608,-5.586235E-05
281.708,-5.581433E-05
281.808,-5.579738E-05
281.908,-5.577948E-05
282.008,-5.577571E-05
282.108,-5.578702E-05
282.208,-5.57597E-05
282.308,-5.573239E-05
282.408,-5.573616E-05
282.508,-5.569378E-05
282.608,-5.568248E-05
282.708,-5.568154E-05
282.808,-5.566741E-05
282.9081,-5.565329E-05
283.0081,-5.563728E-05
283.1081,-5.561844E-05
283.2081,-5.559208E-05
283.3081,-5.560432E-05
283.4081,-5.556383E-05
283.5081,-5.555535E-05
283.6081,-5.553557E-05
283.7081,-5.552804E-05
283.8081,-5.552239E-05
283.9081,-5.552521E-05
284.0081,-5.549319E-05
284.1081,-5.545835E-05
284.2081,-5.547153E-05
284.3081,-5.544328E-05
284.4081,-5.543293E-05
284.5081,-5.54188E-05
284.6082,-5.539525E-05
284.7082,-5.538489E-05
284.8082,-5.538584E-05
284.9082,-5.535852E-05
285.0082,-5.534346E-05
285.1082,-5.535099E-05
285.2082,-5.531426E-05
285.3082,-5.528601E-05
285.4082,-5.529261E-05
285.5082,-5.525964E-05
285.6082,-5.526247E-05
285.7082,-5.526435E-05
285.8082,-5.521538E-05
285.9082,-5.520691E-05
286.0082,-5.519937E-05
286.1082,-5.519467E-05
286.2083,-5.517865E-05
286.3083,-5.516924E-05
286.4083,-5.51165E-05
286.5083,-5.511274E-05
286.6083,-5.513063E-05
286.7083,-5.510897E-05
286.8083,-5.509484E-05
286.9083,-5.506753E-05
287.0083,-5.505152E-05
287.1083,-5.502421E-05
287.2083,-5.501856E-05
287.3083,-5.500914E-05
287.4083,-5.499407E-05
287.5083,-5.498654E-05
287.6083,-5.495641E-05
287.7083,-5.492439E-05
287.8083,-5.495547E-05
287.9084,-5.490838E-05
288.0084,-5.48886E-05
288.1084,-5.487353E-05
288.2084,-5.486412E-05
288.3084,-5.484528E-05
288.4084,-5.485658E-05
288.5084,-5.483869E-05
288.6084,-5.480667E-05
288.7084,-5.482362E-05
288.8084,-5.479819E-05
288.9084,-5.478407E-05
289.0084,-5.478972E-05
289.1084,-5.475017E-05
289.2084,-5.475393E-05
289.3084,-5.471909E-05
289.4084,-5.467483E-05
289.5085,-5.470402E-05
289.6085,-5.470308E-05
289.7085,-5.464752E-05
289.8085,-5.46042E-05
289.9085,-5.464187E-05
290.0085,-5.461644E-05
290.1085,-5.462021E-05
290.2085,-5.459666E-05
290.3085,-5.455052E-05
290.4085,-5.456559E-05
290.5085,-5.455429E-05
290.6085,-5.451661E-05
290.7085,-5.450626E-05
290.8085,-5.448083E-05
290.9085,-5.44846E-05
291.0085,-5.446294E-05
291.1086,-5.444693E-05
291.2086,-5.444504E-05
291.3086,-5.43989E-05
291.4086,-5.444128E-05
291.5086,-5.440549E-05
291.6086,-5.438289E-05
291.7086,-5.436877E-05
291.8086,-5.435464E-05
291.9086,-5.43132E-05
292.0086,-5.434522E-05
292.1086,-5.430473E-05
292.2086,-5.428778E-05
292.3086,-5.427648E-05
292.4086,-5.424163E-05
292.5086,-5.423881E-05
292.6086,-5.426706E-05
292.7086,-5.42341E-05
292.8087,-5.420114E-05
292.9087,-5.42002E-05
293.0087,-5.420396E-05
293.1087,-5.420114E-05
293.2087,-5.420491E-05
293.3087,-5.414275E-05
293.4087,-5.41371E-05
293.5087,-5.416064E-05
293.6087,-5.411826E-05
293.7087,-5.410979E-05
293.8087,-5.409096E-05
293.9087,-5.405894E-05
294.0087,-5.405328E-05
294.1087,-5.406365E-05
294.2087,-5.401091E-05
294.3087,-5.400337E-05
294.4088,-5.400996E-05
294.5088,-5.397041E-05
294.6088,-5.396288E-05
294.7088,-5.3961E-05
294.8088,-5.395158E-05
294.9088,-5.391297E-05
295.0088,-5.392427E-05
295.1088,-5.390638E-05
295.2088,-5.389507E-05
295.3088,-5.38753E-05
295.4088,-5.384046E-05
295.5088,-5.385176E-05
295.6088,-5.386212E-05
295.7088,-5.383857E-05
295.8088,-5.38188E-05
295.9088,-5.38009E-05
296.0089,-5.378395E-05
296.1089,-5.376983E-05
296.2089,-5.37896E-05
296.3089,-5.374628E-05
296.4089,-5.371992E-05
296.5089,-5.376135E-05
296.6089,-5.375852E-05
296.7089,-5.369731E-05
296.8089,-5.367754E-05
296.9089,-5.366435E-05
297.0089,-5.364645E-05
297.1089,-5.365117E-05
297.2089,-5.362292E-05
297.3089,-5.361726E-05
297.4089,-5.360408E-05
297.5089,-5.357018E-05
297.6089,-5.357677E-05
297.709,-5.358336E-05
297.809,-5.355605E-05
297.909,-5.352403E-05
298.009,-5.350802E-05
298.109,-5.350237E-05
298.209,-5.351085E-05
298.309,-5.350614E-05
298.409,-5.344493E-05
298.509,-5.346188E-05
298.609,-5.346376E-05
298.709,-5.342892E-05
298.809,-5.342138E-05
298.909,-5.341856E-05
299.009,-5.340538E-05
299.109,-5.339031E-05
299.209,-5.339407E-05
299.3091,-5.336394E-05
299.4091,-5.332816E-05
299.5091,-5.334134E-05
299.6091,-5.332721E-05
299.7091,-5.32999E-05
299.8091,-5.329049E-05
299.9091,-5.327542E-05
300.0091,-5.328295E-05
300.1091,-5.324434E-05
300.2091,-5.322174E-05
300.3091,-5.323586E-05
300.4091,-5.324434E-05
300.5091,-5.320667E-05
300.6091,-5.31803E-05
300.7091,-5.318784E-05
300.8091,-5.316523E-05
300.9091,-5.315864E-05
301.0092,-5.315299E-05
301.1092,-5.31238E-05
301.2092,-5.309084E-05
301.3092,-5.30946E-05
301.4092,-5.30899E-05
301.5092,-5.308142E-05
301.6092,-5.306541E-05
301.7092,-5.304563E-05
301.8092,-5.302303E-05
301.9092,-5.302209E-05
302.0092,-5.302303E-05
302.1092,-5.299761E-05
302.2092,-5.297783E-05
302.3092,-5.295617E-05
302.4092,-5.296653E-05
302.5092,-5.294958E-05
302.6093,-5.290249E-05
302.7093,-5.293545E-05
302.8093,-5.295146E-05
302.9093,-5.292227E-05
303.0093,-5.288083E-05
303.1093,-5.288083E-05
303.2093,-5.287047E-05
303.3093,-5.286953E-05
303.4093,-5.286105E-05
303.5093,-5.282433E-05
303.6093,-5.279137E-05
303.7093,-5.283374E-05
303.8093,-5.284881E-05
303.9093,-5.27537E-05
304.0093,-5.274711E-05
304.1093,-5.273109E-05
304.2094,-5.273203E-05
304.3094,-5.27424E-05
304.4094,-5.27085E-05
304.5094,-5.268024E-05
304.6094,-5.268307E-05
304.7094,-5.268966E-05
304.8094,-5.265104E-05
304.9094,-5.265388E-05
305.0094,-5.263504E-05
305.1094,-5.261997E-05
305.2094,-5.262374E-05
305.3094,-5.259454E-05
305.4094,-5.256535E-05
305.5094,-5.256347E-05
305.6094,-5.257947E-05
305.7094,-5.254087E-05
305.8094,-5.254369E-05
305.9095,-5.248719E-05
306.0095,-5.249472E-05
306.1095,-5.252109E-05
306.2095,-5.252109E-05
306.3095,-5.246647E-05
306.4095,-5.247965E-05
306.5095,-5.247212E-05
306.6095,-5.244481E-05
306.7095,-5.242786E-05
306.8095,-5.241373E-05
306.9095,-5.237795E-05
307.0095,-5.239678E-05
307.1095,-5.234499E-05
307.2095,-5.232427E-05
307.3095,-5.236194E-05
307.4095,-5.233651E-05
307.5096,-5.228943E-05
307.6096,-5.228189E-05
307.7096,-5.226588E-05
307.8096,-5.226306E-05
307.9096,-5.224516E-05
308.0096,-5.224611E-05
308.1096,-5.219337E-05
308.2096,-5.222068E-05
308.3096,-5.220938E-05
308.4096,-5.217642E-05
308.5096,-5.216512E-05
308.6096,-5.214722E-05
308.7096,-5.21331E-05
308.8096,-5.214157E-05
308.9096,-5.215287E-05
309.0096,-5.210013E-05
309.1096,-5.208507E-05
309.2097,-5.205964E-05
309.3097,-5.206717E-05
309.4097,-5.207094E-05
309.5097,-5.203516E-05
309.6097,-5.200031E-05
309.7097,-5.19956E-05
309.8097,-5.201067E-05
309.9097,-5.197866E-05
310.0097,-5.197583E-05
310.1097,-5.196264E-05
310.2097,-5.193062E-05
310.3097,-5.19504E-05
310.4097,-5.191179E-05
310.5097,-5.188636E-05
310.6097,-5.192498E-05
310.7097,-5.191367E-05
310.8098,-5.186565E-05
310.9098,-5.18826E-05
311.0098,-5.187129E-05
311.1098,-5.184869E-05
311.2098,-5.185905E-05
311.3098,-5.182609E-05
311.4098,-5.177335E-05
311.5098,-5.182138E-05
311.6098,-5.179125E-05
311.7098,-5.172533E-05
311.8098,-5.1779E-05
311.9098,-5.174322E-05
312.0098,-5.17338E-05
312.1098,-5.171309E-05
312.2098,-5.170555E-05
312.3098,-5.168766E-05
312.4099,-5.170367E-05
312.5099,-5.167824E-05
312.6099,-5.163774E-05
312.7099,-5.165093E-05
312.8099,-5.165093E-05
312.9099,-5.162927E-05
313.0099,-5.162079E-05
313.1099,-5.161891E-05
313.2099,-5.157559E-05
313.3099,-5.158972E-05
313.4099,-5.158689E-05
313.5099,-5.155204E-05
313.6099,-5.153133E-05
313.7099,-5.152756E-05
313.8099,-5.151343E-05
313.9099,-5.153604E-05
314.0099,-5.152568E-05
314.11,-5.148047E-05
314.21,-5.147765E-05
314.31,-5.146635E-05
314.41,-5.143245E-05
314.51,-5.144375E-05
314.61,-5.141738E-05
314.71,-5.138819E-05
314.81,-5.14268E-05
314.91,-5.139101E-05
315.01,-5.136841E-05
315.11,-5.136653E-05
315.21,-5.13477E-05
315.31,-5.133733E-05
315.41,-5.133639E-05
315.51,-5.134486E-05
315.61,-5.128083E-05
315.7101,-5.128177E-05
315.8101,-5.127894E-05
315.9101,-5.125728E-05
316.0101,-5.125163E-05
316.1101,-5.12328E-05
316.2101,-5.121679E-05
316.3101,-5.123375E-05
316.4101,-5.12102E-05
316.5101,-5.119513E-05
316.6101,-5.118289E-05
316.7101,-5.117347E-05
316.8101,-5.116406E-05
316.9101,-5.113863E-05
317.0101,-5.113015E-05
317.1101,-5.113392E-05
317.2101,-5.109625E-05
317.3102,-5.108401E-05
317.4102,-5.108495E-05
317.5102,-5.109343E-05
317.6102,-5.105387E-05
317.7102,-5.102939E-05
317.8102,-5.105105E-05
317.9102,-5.104163E-05
318.0102,-5.101338E-05
318.1102,-5.099454E-05
318.2102,-5.101056E-05
318.3102,-5.097571E-05
318.4102,-5.098136E-05
318.5102,-5.095405E-05
318.6102,-5.094463E-05
318.7102,-5.095028E-05
318.8102,-5.093993E-05
318.9102,-5.090508E-05
319.0103,-5.087683E-05
319.1103,-5.088436E-05
319.2103,-5.086741E-05
319.3103,-5.08627E-05
319.4103,-5.085705E-05
319.5103,-5.080808E-05
319.6103,-5.079678E-05
319.7103,-5.081373E-05
319.8103,-5.079301E-05
319.9103,-5.078736E-05
320.0103,-5.078642E-05
320.1103,-5.073463E-05
320.2103,-5.074122E-05
320.3103,-5.074781E-05
320.4103,-5.071391E-05
320.5103,-5.071014E-05
320.6104,-5.072332E-05
320.7104,-5.068283E-05
320.8104,-5.066023E-05
320.9104,-5.066023E-05
321.0104,-5.06461E-05
321.1104,-5.062539E-05
321.2104,-5.063762E-05
321.3104,-5.063198E-05
321.4104,-5.060278E-05
321.5104,-5.059525E-05
321.6104,-5.056417E-05
321.7104,-5.055663E-05
321.8104,-5.056982E-05
321.9104,-5.053498E-05
322.0104,-5.051049E-05
322.1104,-5.051803E-05
322.2104,-5.052556E-05
322.3105,-5.049354E-05
322.4105,-5.04813E-05
322.5105,-5.044928E-05
322.6105,-5.041632E-05
322.7105,-5.04474E-05
322.8105,-5.04248E-05
322.9105,-5.040408E-05
323.0105,-5.039655E-05
323.1105,-5.036641E-05
323.2105,-5.038524E-05
323.3105,-5.037206E-05
323.4105,-5.035981E-05
323.5105,-5.033721E-05
323.6105,-5.032968E-05
323.7105,-5.02986E-05
323.8105,-5.030237E-05
323.9106,-5.031555E-05
324.0106,-5.027506E-05
324.1106,-5.025529E-05
324.2106,-5.025717E-05
324.3106,-5.022421E-05
324.4106,-5.022138E-05
324.5106,-5.022515E-05
324.6106,-5.021573E-05
324.7106,-5.019501E-05
324.8106,-5.019972E-05
324.9106,-5.017429E-05
325.0106,-5.014228E-05
325.1106,-5.020254E-05
325.2106,-5.015734E-05
325.3106,-5.011309E-05
325.4106,-5.013003E-05
325.5107,-5.012344E-05
325.6107,-5.008106E-05
325.7107,-5.008295E-05
325.8107,-5.005093E-05
325.9107,-5.004905E-05
326.0107,-5.008577E-05
326.1107,-5.004716E-05
326.2107,-4.999913E-05
326.3107,-5.001702E-05
326.4107,-5.001702E-05
326.5107,-4.996617E-05
326.6107,-4.998218E-05
326.7107,-4.996429E-05
326.8107,-4.992191E-05
326.9107,-4.993039E-05
327.0107,-4.993039E-05
327.1107,-4.988895E-05
327.2108,-4.990684E-05
327.3108,-4.992379E-05
327.4108,-4.987483E-05
327.5108,-4.987388E-05
327.6108,-4.987388E-05
327.7108,-4.983151E-05
327.8108,-4.98494E-05
327.9108,-4.982303E-05
328.0108,-4.979383E-05
328.1108,-4.980137E-05
328.2108,-4.977783E-05
328.3108,-4.973922E-05
328.4108,-4.974957E-05
328.5108,-4.977123E-05
328.6108,-4.971473E-05
328.7108,-4.97006E-05
328.8109,-4.972226E-05
328.9109,-4.971002E-05
329.0109,-4.969401E-05
329.1109,-4.966482E-05
329.2109,-4.964316E-05
329.3109,-4.966011E-05
329.4109,-4.967894E-05
329.5109,-4.96215E-05
329.6109,-4.959984E-05
329.7109,-4.960925E-05
329.8109,-4.958759E-05
329.9109,-4.959042E-05
330.0109,-4.956217E-05
330.1109,-4.954145E-05
330.2109,-4.955181E-05
330.3109,-4.957064E-05
330.4109,-4.952638E-05
330.511,-4.951414E-05
330.611,-4.951132E-05
330.711,-4.951696E-05
330.811,-4.952638E-05
330.911,-4.948024E-05
331.011,-4.944257E-05
331.111,-4.944069E-05
331.211,-4.945952E-05
331.311,-4.944069E-05
331.411,-4.940396E-05
331.511,-4.940772E-05
331.611,-4.938041E-05
331.711,-4.938606E-05
331.811,-4.937288E-05
331.911,-4.934463E-05
332.011,-4.937006E-05
332.1111,-4.936346E-05
332.2111,-4.930319E-05
332.3111,-4.930602E-05
332.4111,-4.929849E-05
332.5111,-4.926741E-05
332.6111,-4.92966E-05
332.7111,-4.928059E-05
332.8111,-4.922974E-05
332.9111,-4.923445E-05
333.0111,-4.925046E-05
333.1111,-4.922598E-05
333.2111,-4.922503E-05
333.3111,-4.920337E-05
333.4111,-4.918077E-05
333.5111,-4.917324E-05
333.6111,-4.919207E-05
333.7112,-4.914781E-05
333.8112,-4.916005E-05
333.9112,-4.914781E-05
334.0112,-4.910072E-05
334.1112,-4.912238E-05
334.2112,-4.911202E-05
334.3112,-4.90866E-05
334.4112,-4.907624E-05
334.5112,-4.906964E-05
334.6112,-4.905081E-05
334.7112,-4.905458E-05
334.8112,-4.90461E-05
334.9112,-4.901032E-05
335.0112,-4.901032E-05
335.1112,-4.900937E-05
335.2112,-4.898112E-05
335.3112,-4.899995E-05
335.4113,-4.89717E-05
335.5113,-4.894816E-05
335.6113,-4.89265E-05
335.7113,-4.894439E-05
335.8113,-4.892932E-05
335.9113,-4.891897E-05
336.0113,-4.891144E-05
336.1113,-4.886623E-05
336.2113,-4.887847E-05
336.3113,-4.889354E-05
336.4113,-4.885775E-05
336.5113,-4.884268E-05
336.6113,-4.883233E-05
336.7113,-4.881255E-05
336.8113,-4.884268E-05
336.9113,-4.881349E-05
337.0114,-4.877959E-05
337.1114,-4.879183E-05
337.2114,-4.878995E-05
337.3114,-4.875417E-05
337.4114,-4.874946E-05
337.5114,-4.874946E-05
337.6114,-4.873627E-05
337.7114,-4.876452E-05
337.8114,-4.872779E-05
337.9114,-4.867035E-05
338.0114,-4.870802E-05
338.1114,-4.86986E-05
338.2114,-4.864304E-05
338.3114,-4.868636E-05
338.4114,-4.865528E-05
338.5114,-4.862797E-05
338.6115,-4.863174E-05
338.7115,-4.863174E-05
338.8115,-4.862232E-05
338.9115,-4.859972E-05
339.0115,-4.858089E-05
339.1115,-4.856111E-05
339.2115,-4.855922E-05
339.3115,-4.856581E-05
339.4115,-4.852627E-05
339.5115,-4.852344E-05
339.6115,-4.85225E-05
339.7115,-4.852438E-05
339.8115,-4.854228E-05
339.9115,-4.849613E-05
340.0115,-4.847071E-05
340.1115,-4.847918E-05
340.2115,-4.846411E-05
340.3116,-4.844433E-05
340.4116,-4.844716E-05
340.5116,-4.841703E-05
340.6116,-4.837935E-05
340.7116,-4.84029E-05
340.8116,-4.840949E-05
340.9116,-4.838783E-05
341.0116,-4.838029E-05
341.1116,-4.835393E-05
341.2116,-4.831909E-05
341.3116,-4.833792E-05
341.4116,-4.836052E-05
341.5116,-4.831249E-05
341.6116,-4.832097E-05
341.7116,-4.829177E-05
341.8116,-4.827106E-05
341.9117,-4.827765E-05
342.0117,-4.828047E-05
342.1117,-4.823998E-05
342.2117,-4.825599E-05
342.3117,-4.827576E-05
342.4117,-4.822209E-05
342.5117,-4.818065E-05
342.6117,-4.819383E-05
342.7117,-4.819666E-05
342.8117,-4.818348E-05
342.9117,-4.8175E-05
343.0117,-4.815993E-05
343.1117,-4.815899E-05
343.2117,-4.81524E-05
343.3117,-4.812697E-05
343.4117,-4.814675E-05
343.5117,-4.812415E-05
343.6118,-4.807141E-05
343.7118,-4.809778E-05
343.8118,-4.811096E-05
343.9118,-4.807988E-05
344.0118,-4.804693E-05
344.1118,-4.805728E-05
344.2118,-4.803468E-05
344.3118,-4.802526E-05
344.4118,-4.802809E-05
344.5118,-4.799418E-05
344.6118,-4.799983E-05
344.7118,-4.800737E-05
344.8118,-4.796876E-05
344.9118,-4.79584E-05
345.0118,-4.795746E-05
345.1118,-4.793863E-05
345.2119,-4.791226E-05
345.3119,-4.794239E-05
345.4119,-4.791508E-05
345.5119,-4.790566E-05
345.6119,-4.788024E-05
345.7119,-4.78953E-05
345.8119,-4.788777E-05
345.9119,-4.7868E-05
346.0119,-4.783692E-05
346.1119,-4.785387E-05
346.2119,-4.784257E-05
346.3119,-4.782279E-05
346.4119,-4.782468E-05
346.5119,-4.780113E-05
346.6119,-4.775311E-05
346.7119,-4.777664E-05
346.812,-4.777288E-05
346.912,-4.774463E-05
347.012,-4.773427E-05
347.112,-4.770507E-05
347.212,-4.769754E-05
347.312,-4.77079E-05
347.412,-4.769942E-05
347.512,-4.766081E-05
347.612,-4.765516E-05
347.712,-4.767776E-05
347.812,-4.766929E-05
347.912,-4.764575E-05
348.012,-4.76401E-05
348.112,-4.761561E-05
348.212,-4.763444E-05
348.312,-4.761373E-05
348.412,-4.759678E-05
348.5121,-4.762879E-05
348.6121,-4.761185E-05
348.7121,-4.75431E-05
348.8121,-4.759207E-05
348.9121,-4.759113E-05
349.0121,-4.757323E-05
349.1121,-4.75318E-05
349.2121,-4.75318E-05
349.3121,-4.751108E-05
349.4121,-4.751391E-05
349.5121,-4.751861E-05
349.6121,-4.747623E-05
349.7121,-4.745457E-05
349.8121,-4.749318E-05
349.9121,-4.748848E-05
350.0121,-4.744327E-05
350.1122,-4.745552E-05
350.2122,-4.744798E-05
350.3122,-4.741596E-05
350.4122,-4.742349E-05
350.5122,-4.741314E-05
350.6122,-4.741126E-05
350.7122,-4.739336E-05
350.8122,-4.736699E-05
350.9122,-4.734157E-05
351.0122,-4.735004E-05
351.1122,-4.734816E-05
351.2122,-4.732744E-05
351.3122,-4.73086E-05
351.4122,-4.729072E-05
351.5122,-4.727471E-05
351.6122,-4.72973E-05
351.7122,-4.72973E-05
351.8123,-4.728977E-05
351.9123,-4.726811E-05
352.0123,-4.722762E-05
352.1123,-4.723233E-05
352.2123,-4.725964E-05
352.3123,-4.723138E-05
352.4123,-4.721631E-05
352.5123,-4.720596E-05
352.6123,-4.719277E-05
352.7123,-4.716546E-05
352.8123,-4.718618E-05
352.9123,-4.71551E-05
353.0123,-4.71504E-05
353.1123,-4.716829E-05
353.2123,-4.712214E-05
353.3123,-4.71212E-05
353.4124,-4.713533E-05
353.5124,-4.711838E-05
353.6124,-4.710142E-05
353.7124,-4.707883E-05
353.8124,-4.707317E-05
353.9124,-4.706846E-05
354.0124,-4.706941E-05
354.1124,-4.704492E-05
354.2124,-4.703645E-05
354.3124,-4.705434E-05
354.4124,-4.702138E-05
354.5124,-4.699218E-05
354.6124,-4.703268E-05
354.7124,-4.702797E-05
354.8124,-4.698465E-05
354.9124,-4.700066E-05
355.0125,-4.699595E-05
355.1125,-4.696205E-05
355.2125,-4.696958E-05
355.3125,-4.696299E-05
355.4125,-4.694886E-05
355.5125,-4.695922E-05
355.6125,-4.690743E-05
355.7125,-4.68933E-05
355.8125,-4.693097E-05
355.9125,-4.695169E-05
356.0125,-4.687352E-05
356.1125,-4.6882E-05
356.2125,-4.689236E-05
356.3125,-4.685752E-05
356.4125,-4.68707E-05
356.5125,-4.682456E-05
356.6125,-4.679913E-05
356.7126,-4.685469E-05
356.8126,-4.68368E-05
356.9126,-4.677653E-05
357.0126,-4.675299E-05
357.1126,-4.677182E-05
357.2126,-4.674639E-05
357.3126,-4.678312E-05
357.4126,-4.675675E-05
357.5126,-4.673227E-05
357.6126,-4.67398E-05
357.7126,-4.673321E-05
357.8126,-4.673038E-05
357.9126,-4.672096E-05
358.0126,-4.670402E-05
358.1126,-4.668424E-05
358.2126,-4.669742E-05
358.3127,-4.670119E-05
358.4127,-4.667576E-05
358.5127,-4.665598E-05
358.6127,-4.665598E-05
358.7127,-4.662962E-05
358.8127,-4.665504E-05
358.9127,-4.663715E-05
359.0127,-4.660419E-05
359.1127,-4.66315E-05
359.2127,-4.662397E-05
359.3127,-4.661078E-05
359.4127,-4.659007E-05
359.5127,-4.6575E-05
359.6127,-4.661832E-05
359.7127,-4.659195E-05
359.8127,-4.657406E-05
359.9128,-4.65524E-05
360.0128,-4.656464E-05
360.1128,-4.655616E-05
360.2128,-4.652226E-05
360.3128,-4.652226E-05
360.4128,-4.650343E-05
360.5128,-4.65006E-05
360.6128,-4.652132E-05
360.7128,-4.649307E-05
360.8128,-4.645163E-05
360.9128,-4.647329E-05
361.0128,-4.646952E-05
361.1128,-4.647235E-05
361.2128,-4.644975E-05
361.3128,-4.64262E-05
361.4128,-4.640361E-05
361.5128,-4.645163E-05
361.6129,-4.641679E-05
361.7129,-4.637723E-05
361.8129,-4.637818E-05
361.9129,-4.639042E-05
362.0129,-4.638571E-05
362.1129,-4.638571E-05
362.2129,-4.636123E-05
362.3129,-4.631884E-05
362.4129,-4.635275E-05
362.5129,-4.633486E-05
362.6129,-4.632261E-05
362.7129,-4.633109E-05
362.8129,-4.627458E-05
362.9129,-4.628118E-05
363.0129,-4.630378E-05
363.1129,-4.628777E-05
363.213,-4.627082E-05
363.313,-4.626517E-05
363.413,-4.625575E-05
363.513,-4.624539E-05
363.613,-4.625481E-05
363.713,-4.623597E-05
363.813,-4.623786E-05
363.913,-4.623786E-05
364.013,-4.619548E-05
364.113,-4.619266E-05
364.213,-4.6187E-05
364.313,-4.617853E-05
364.413,-4.616346E-05
364.513,-4.615122E-05
364.613,-4.615781E-05
364.713,-4.614368E-05
364.813,-4.612485E-05
364.9131,-4.61418E-05
365.0131,-4.610037E-05
365.1131,-4.609754E-05
365.2131,-4.61013E-05
365.3131,-4.610413E-05
365.4131,-4.608435E-05
365.5131,-4.604574E-05
365.6131,-4.605045E-05
365.7131,-4.605516E-05
365.8131,-4.603821E-05
365.9131,-4.600807E-05
366.0131,-4.602973E-05
366.1131,-4.603726E-05
366.2131,-4.600901E-05
366.3131,-4.601373E-05
366.4131,-4.598265E-05
366.5132,-4.597323E-05
366.6132,-4.599583E-05
366.7132,-4.598171E-05
366.8132,-4.593556E-05
366.9132,-4.594969E-05
367.0132,-4.59478E-05
367.1132,-4.592237E-05
367.2132,-4.592991E-05
367.3132,-4.590731E-05
367.4132,-4.58913E-05
367.5132,-4.591484E-05
367.6132,-4.590543E-05
367.7132,-4.586964E-05
367.8132,-4.586211E-05
367.9132,-4.585551E-05
368.0132,-4.583668E-05
368.1133,-4.587906E-05
368.2133,-4.583762E-05
368.3133,-4.583292E-05
368.4133,-4.583574E-05
368.5133,-4.581314E-05
368.6133,-4.580278E-05
368.7133,-4.579242E-05
368.8133,-4.579336E-05
368.9133,-4.578017E-05
369.0133,-4.5783E-05
369.1133,-4.578677E-05
369.2133,-4.574345E-05
369.3133,-4.577829E-05
369.4133,-4.574628E-05
369.5133,-4.573968E-05
369.6133,-4.575004E-05
369.7133,-4.573121E-05
369.8134,-4.570296E-05
369.9134,-4.568789E-05
370.0134,-4.570484E-05
370.1134,-4.567377E-05
370.2134,-4.566622E-05
370.3134,-4.56521E-05
370.4134,-4.568318E-05
370.5134,-4.569542E-05
370.6134,-4.565681E-05
370.7134,-4.561443E-05
370.8134,-4.561726E-05
370.9134,-4.561443E-05
371.0134,-4.559465E-05
371.1134,-4.560219E-05
371.2134,-4.558712E-05
371.3134,-4.558053E-05
371.4135,-4.558618E-05
371.5135,-4.559183E-05
371.6135,-4.553815E-05
371.7135,-4.555981E-05
371.8135,-4.556923E-05
371.9135,-4.551649E-05
372.0135,-4.551837E-05
372.1135,-4.553439E-05
372.2135,-4.552403E-05
372.3135,-4.550425E-05
372.4135,-4.550425E-05
372.5135,-4.54873E-05
372.6135,-4.548353E-05
372.7135,-4.548635E-05
372.8135,-4.547129E-05
372.9135,-4.54581E-05
373.0135,-4.545057E-05
373.1136,-4.543173E-05
373.2136,-4.544492E-05
373.3136,-4.543456E-05
373.4136,-4.542515E-05
373.5136,-4.542608E-05
373.6136,-4.54242E-05
373.7136,-4.541102E-05
373.8136,-4.539877E-05
373.9136,-4.541196E-05
374.0136,-4.537523E-05
374.1136,-4.539689E-05
374.2136,-4.539972E-05
374.3136,-4.53564E-05
374.4136,-4.53338E-05
374.5136,-4.536393E-05
374.6136,-4.535075E-05
374.7137,-4.535169E-05
374.8137,-4.531873E-05
374.9137,-4.531025E-05
375.0137,-4.532626E-05
375.1137,-4.530931E-05
375.2137,-4.526694E-05
375.3137,-4.527164E-05
375.4137,-4.528012E-05
375.5137,-4.52707E-05
375.6137,-4.521891E-05
375.7137,-4.526788E-05
375.8137,-4.52594E-05
375.9137,-4.524245E-05
376.0137,-4.523774E-05
376.1137,-4.519819E-05
376.2137,-4.519536E-05
376.3138,-4.525092E-05
376.4138,-4.521514E-05
376.5138,-4.519725E-05
376.6138,-4.517747E-05
376.7138,-4.516711E-05
376.8138,-4.516052E-05
376.9138,-4.519348E-05
377.0138,-4.514074E-05
377.1138,-4.511626E-05
377.2138,-4.512284E-05
377.3138,-4.512379E-05
377.4138,-4.511908E-05
377.5138,-4.511437E-05
377.6138,-4.507858E-05
377.7138,-4.507764E-05
377.8138,-4.508329E-05
377.9138,-4.506823E-05
378.0139,-4.50654E-05
378.1139,-4.504657E-05
378.2139,-4.505222E-05
378.3139,-4.504468E-05
378.4139,-4.505127E-05
378.5139,-4.501172E-05
378.6139,-4.500419E-05
378.7139,-4.501643E-05
378.8139,-4.499007E-05
378.9139,-4.499854E-05
379.0139,-4.498536E-05
379.1139,-4.496369E-05
379.2139,-4.495804E-05
379.3139,-4.497123E-05
379.4139,-4.496369E-05
379.5139,-4.493262E-05
379.614,-4.493921E-05
379.714,-4.49006E-05
379.814,-4.492696E-05
379.914,-4.493074E-05
380.014,-4.490625E-05
380.114,-4.490154E-05
380.214,-4.4894E-05
380.314,-4.486764E-05
380.414,-4.48893E-05
380.514,-4.4878E-05
380.614,-4.485917E-05
380.714,-4.486575E-05
380.814,-4.484221E-05
380.914,-4.482338E-05
381.014,-4.484692E-05
381.114,-4.48488E-05
381.2141,-4.480454E-05
381.3141,-4.480643E-05
381.4141,-4.478948E-05
381.5141,-4.478476E-05
381.6141,-4.479513E-05
381.7141,-4.478665E-05
381.8141,-4.476217E-05
381.9141,-4.475745E-05
382.0141,-4.475463E-05
382.1141,-4.473203E-05
382.2141,-4.47358E-05
382.3141,-4.473297E-05
382.4141,-4.471319E-05
382.5141,-4.470849E-05
382.6141,-4.470001E-05
382.7141,-4.467364E-05
382.8141,-4.470001E-05
382.9142,-4.470189E-05
383.0142,-4.467364E-05
383.1142,-4.465387E-05
383.2142,-4.466705E-05
383.3142,-4.464445E-05
383.4142,-4.465575E-05
383.5142,-4.463974E-05
383.6142,-4.462938E-05
383.7142,-4.463127E-05
383.8142,-4.460207E-05
383.9142,-4.459548E-05
384.0142,-4.461149E-05
384.1142,-4.460866E-05
384.2142,-4.457099E-05
384.3142,-4.455969E-05
384.4142,-4.457664E-05
384.5143,-4.456629E-05
384.6143,-4.458795E-05
384.7143,-4.455687E-05
384.8143,-4.45531E-05
384.9143,-4.454557E-05
385.0143,-4.455122E-05
385.1143,-4.451638E-05
385.2143,-4.449942E-05
385.3143,-4.44966E-05
385.4143,-4.447211E-05
385.5143,-4.447305E-05
385.6143,-4.448341E-05
385.7143,-4.444292E-05
385.8143,-4.445893E-05
385.9143,-4.446269E-05
386.0143,-4.443538E-05
386.1143,-4.443256E-05
386.2144,-4.442691E-05
386.3144,-4.442314E-05
386.4144,-4.442314E-05
386.5144,-4.441184E-05
386.6144,-4.440807E-05
386.7144,-4.440148E-05
386.8144,-4.440713E-05
386.9144,-4.436193E-05
387.0144,-4.437511E-05
387.1144,-4.439395E-05
387.2144,-4.436852E-05
387.3144,-4.433933E-05
387.4144,-4.435628E-05
387.5144,-4.435628E-05
387.6144,-4.434498E-05
387.7144,-4.433368E-05
387.8145,-4.430825E-05
387.9145,-4.42913E-05
388.0145,-4.432049E-05
388.1145,-4.430542E-05
388.2145,-4.428847E-05
388.3145,-4.429601E-05
388.4145,-4.428377E-05
388.5145,-4.428094E-05
388.6145,-4.42913E-05
388.7145,-4.427623E-05
388.8145,-4.424892E-05
388.9145,-4.425175E-05
389.0145,-4.423291E-05
389.1145,-4.424045E-05
389.2145,-4.424986E-05
389.3145,-4.419995E-05
389.4146,-4.418865E-05
389.5146,-4.420372E-05
389.6146,-4.41943E-05
389.7146,-4.420278E-05
389.8146,-4.418865E-05
389.9146,-4.418112E-05
390.0146,-4.415569E-05
390.1146,-4.416887E-05
390.2146,-4.412461E-05
390.3146,-4.412273E-05
390.4146,-4.413497E-05
390.5146,-4.410578E-05
390.6146,-4.410578E-05
390.7146,-4.413591E-05
390.8146,-4.412367E-05
390.9146,-4.413403E-05
391.0146,-4.413591E-05
391.1147,-4.412085E-05
391.2147,-4.411049E-05
391.3147,-4.410296E-05
391.4147,-4.41039E-05
391.5147,-4.410201E-05
391.6147,-4.409636E-05
391.7147,-4.404645E-05
391.8147,-4.405869E-05
391.9147,-4.40747E-05
392.0147,-4.407753E-05
392.1147,-4.406058E-05
392.2147,-4.405116E-05
392.3147,-4.400784E-05
392.4147,-4.401914E-05
392.5147,-4.403703E-05
392.6147,-4.401537E-05
392.7148,-4.400784E-05
392.8148,-4.400313E-05
392.9148,-4.397865E-05
393.0148,-4.398712E-05
393.1148,-4.399089E-05
393.2148,-4.39664E-05
393.3148,-4.397393E-05
393.4148,-4.396358E-05
393.5148,-4.395604E-05
393.6148,-4.393532E-05
393.7148,-4.394757E-05
393.8148,-4.394192E-05
393.9148,-4.391178E-05
394.0148,-4.390801E-05
394.1148,-4.392026E-05
394.2148,-4.391461E-05
394.3148,-4.391743E-05
394.4149,-4.387411E-05
394.5149,-4.388259E-05
394.6149,-4.389671E-05
394.7149,-4.386846E-05
394.8149,-4.383079E-05
394.9149,-4.387129E-05
395.0149,-4.387882E-05
395.1149,-4.385057E-05
395.2149,-4.384021E-05
395.3149,-4.384492E-05
395.4149,-4.382326E-05
395.5149,-4.383739E-05
395.6149,-4.386187E-05
395.7149,-4.381384E-05
395.8149,-4.382232E-05
395.9149,-4.377523E-05
396.015,-4.377711E-05
396.115,-4.383173E-05
396.215,-4.380348E-05
396.315,-4.377523E-05
396.415,-4.380536E-05
396.515,-4.379124E-05
396.615,-4.376958E-05
396.715,-4.378277E-05
396.815,-4.374886E-05
396.915,-4.372814E-05
397.015,-4.374981E-05
397.115,-4.371684E-05
397.215,-4.368482E-05
397.315,-4.371213E-05
397.415,-4.370272E-05
397.515,-4.367447E-05
397.6151,-4.369235E-05
397.7151,-4.369235E-05
397.8151,-4.367917E-05
397.9151,-4.366504E-05
398.0151,-4.366034E-05
398.1151,-4.364998E-05
398.2151,-4.364339E-05
398.3151,-4.363209E-05
398.4151,-4.363209E-05
398.5151,-4.362738E-05
398.6151,-4.360478E-05
398.7151,-4.364715E-05
398.8151,-4.367541E-05
398.9151,-4.362456E-05
399.0151,-4.359159E-05
399.1151,-4.359724E-05
399.2151,-4.358971E-05
399.3152,-4.358688E-05
399.4152,-4.356711E-05
399.5152,-4.357276E-05
399.6152,-4.354356E-05
399.7152,-4.356899E-05
399.8152,-4.35737E-05
399.9152,-4.355769E-05
400.0152,-4.356899E-05
400.1152,-4.352662E-05
400.2152,-4.352944E-05
400.3152,-4.354545E-05
400.4152,-4.352944E-05
400.5152,-4.349554E-05
400.6152,-4.350213E-05
400.7152,-4.351249E-05
400.8152,-4.348894E-05
400.9153,-4.347858E-05
401.0153,-4.348235E-05
401.1153,-4.349554E-05
401.2153,-4.349836E-05
401.3153,-4.34654E-05
401.4153,-4.344845E-05
401.5153,-4.347388E-05
401.6153,-4.347953E-05
401.7153,-4.345316E-05
401.8153,-4.343903E-05
401.9153,-4.343903E-05
402.0153,-4.340231E-05
402.1153,-4.34315E-05
402.2153,-4.344092E-05
402.3153,-4.3391E-05
402.4153,-4.342396E-05
402.5154,-4.339194E-05
402.6154,-4.337876E-05
402.7154,-4.33684E-05
402.8154,-4.337028E-05
402.9154,-4.338159E-05
403.0154,-4.339289E-05
403.1154,-4.336746E-05
403.2154,-4.335051E-05
403.3154,-4.337217E-05
403.4154,-4.336087E-05
403.5154,-4.332979E-05
403.6154,-4.331378E-05
403.7154,-4.333638E-05
403.8154,-4.332979E-05
403.9154,-4.333921E-05
404.0154,-4.329777E-05
404.1154,-4.32827E-05
404.2155,-4.33119E-05
404.3155,-4.331943E-05
404.4155,-4.327705E-05
404.5155,-4.328553E-05
404.6155,-4.328836E-05
404.7155,-4.327988E-05
404.8155,-4.329777E-05
404.9155,-4.326387E-05
405.0155,-4.32667E-05
405.1155,-4.326764E-05
405.2155,-4.323939E-05
405.3155,-4.324221E-05
405.4155,-4.325163E-05
405.5155,-4.321773E-05
405.6155,-4.319324E-05
405.7155,-4.321773E-05
405.8156,-4.322055E-05
405.9156,-4.318476E-05
406.0156,-4.319136E-05
406.1156,-4.320831E-05
406.2156,-4.317441E-05
406.3156,-4.315745E-05
406.4156,-4.315275E-05
406.5156,-4.315934E-05
406.6156,-4.316593E-05
406.7156,-4.315839E-05
406.8156,-4.310472E-05
406.9156,-4.314144E-05
407.0156,-4.316028E-05
407.1156,-4.311319E-05
407.2156,-4.310378E-05
407.3156,-4.313297E-05
407.4156,-4.311319E-05
407.5157,-4.310943E-05
407.6157,-4.310943E-05
407.7157,-4.309247E-05
407.8157,-4.308871E-05
407.9157,-4.309907E-05
408.0157,-4.306234E-05
408.1157,-4.308117E-05
408.2157,-4.309059E-05
408.3157,-4.305386E-05
408.4157,-4.304256E-05
408.5157,-4.304821E-05
408.6157,-4.303315E-05
408.7157,-4.302185E-05
408.8157,-4.30162E-05
408.9157,-4.30096E-05
409.0157,-4.300678E-05
409.1158,-4.299548E-05
409.2158,-4.296911E-05
409.3158,-4.300207E-05
409.4158,-4.300112E-05
409.5158,-4.297099E-05
409.6158,-4.295404E-05
409.7158,-4.294745E-05
409.8158,-4.29418E-05
409.9158,-4.295686E-05
410.0158,-4.296817E-05
410.1158,-4.290319E-05
410.2158,-4.292108E-05
410.3158,-4.294556E-05
410.4158,-4.292579E-05
410.5158,-4.293144E-05
410.6158,-4.290507E-05
410.7159,-4.286928E-05
410.8159,-4.289094E-05
410.9159,-4.28966E-05
411.0159,-4.287305E-05
411.1159,-4.285704E-05
411.2159,-4.286835E-05
411.3159,-4.283256E-05
411.4159,-4.286175E-05
411.5159,-4.286646E-05
411.6159,-4.28335E-05
411.7159,-4.282879E-05
411.8159,-4.282314E-05
411.9159,-4.279112E-05
412.0159,-4.282031E-05
412.1159,-4.28109E-05
412.2159,-4.278924E-05
412.3159,-4.280148E-05
412.416,-4.278547E-05
412.516,-4.276193E-05
412.616,-4.277793E-05
412.716,-4.276287E-05
412.816,-4.274309E-05
412.916,-4.272991E-05
413.016,-4.277699E-05
413.116,-4.273273E-05
413.216,-4.274686E-05
413.316,-4.27478E-05
413.416,-4.269224E-05
413.516,-4.271484E-05
413.616,-4.272143E-05
413.716,-4.270166E-05
413.816,-4.269883E-05
413.916,-4.27026E-05
414.0161,-4.266964E-05
414.1161,-4.269224E-05
414.2161,-4.269883E-05
414.3161,-4.265928E-05
414.4161,-4.265269E-05
414.5161,-4.265269E-05
414.6161,-4.262349E-05
414.7161,-4.264798E-05
414.8161,-4.263668E-05
414.9161,-4.262255E-05
415.0161,-4.26282E-05
415.1161,-4.263009E-05
415.2161,-4.260183E-05
415.3161,-4.26122E-05
415.4161,-4.26169E-05
415.5161,-4.25943E-05
415.6161,-4.259524E-05
415.7162,-4.255192E-05
415.8162,-4.255663E-05
415.9162,-4.256793E-05
416.0162,-4.249918E-05
416.1162,-4.250201E-05
416.2162,-4.249824E-05
416.3162,-4.25086E-05
416.4162,-4.250201E-05
416.5162,-4.252555E-05
416.6162,-4.253874E-05
416.7162,-4.250483E-05
416.8162,-4.252273E-05
416.9162,-4.25199E-05
417.0162,-4.246434E-05
417.1162,-4.2486E-05
417.2162,-4.247658E-05
417.3163,-4.248695E-05
417.4163,-4.246622E-05
417.5163,-4.247847E-05
417.6163,-4.244739E-05
417.7163,-4.245304E-05
417.8163,-4.24568E-05
417.9163,-4.244174E-05
418.0163,-4.241632E-05
418.1163,-4.243138E-05
418.2163,-4.241914E-05
418.3163,-4.241632E-05
418.4163,-4.240501E-05
418.5163,-4.238241E-05
418.6163,-4.237676E-05
418.7163,-4.239936E-05
418.8163,-4.237676E-05
418.9164,-4.236828E-05
419.0164,-4.23664E-05
419.1164,-4.235416E-05
419.2164,-4.235698E-05
419.3164,-4.236075E-05
419.4164,-4.23259E-05
419.5164,-4.232308E-05
419.6164,-4.233438E-05
419.7164,-4.232873E-05
419.8164,-4.233721E-05
419.9164,-4.230519E-05
420.0164,-4.230236E-05
420.1164,-4.228259E-05
420.2164,-4.230519E-05
420.3164,-4.226846E-05
420.4164,-4.228824E-05
420.5164,-4.229671E-05
420.6165,-4.226564E-05
420.7165,-4.226375E-05
420.8165,-4.226375E-05
420.9165,-4.226187E-05
421.0165,-4.225528E-05
421.1165,-4.225622E-05
421.2165,-4.224586E-05
421.3165,-4.22016E-05
421.4165,-4.221855E-05
421.5165,-4.221855E-05
421.6165,-4.222608E-05
421.7165,-4.220913E-05
421.8165,-4.217805E-05
421.9165,-4.218182E-05
422.0165,-4.217146E-05
422.1165,-4.2179E-05
422.2166,-4.216204E-05
422.3166,-4.21498E-05
422.4166,-4.209518E-05
422.5166,-4.211684E-05
422.6166,-4.212814E-05
422.7166,-4.212532E-05
422.8166,-4.212344E-05
422.9166,-4.213756E-05
423.0166,-4.211308E-05
423.1166,-4.212344E-05
423.2166,-4.211966E-05
423.3166,-4.210366E-05
423.4166,-4.208106E-05
423.5166,-4.209895E-05
423.6166,-4.209706E-05
423.7166,-4.20754E-05
423.8167,-4.208294E-05
423.9167,-4.20754E-05
424.0167,-4.208482E-05
424.1167,-4.207352E-05
424.2167,-4.205845E-05
424.3167,-4.202926E-05
424.4167,-4.204904E-05
424.5167,-4.203114E-05
424.6167,-4.204433E-05
424.7167,-4.203868E-05
424.8167,-4.201513E-05
424.9167,-4.201984E-05
425.0167,-4.203397E-05
425.1167,-4.201137E-05
425.2167,-4.200855E-05
425.3167,-4.201231E-05
425.4167,-4.19784E-05
425.5168,-4.200571E-05
425.6168,-4.19963E-05
425.7168,-4.198218E-05
425.8168,-4.1985E-05
425.9168,-4.197464E-05
426.0168,-4.198312E-05
426.1168,-4.197935E-05
426.2168,-4.199159E-05
426.3168,-4.198783E-05
426.4168,-4.194733E-05
426.5168,-4.195675E-05
426.6168,-4.194733E-05
426.7168,-4.19172E-05
426.8168,-4.195015E-05
426.9168,-4.193226E-05
427.0168,-4.19285E-05
427.1169,-4.191437E-05
427.2169,-4.189271E-05
427.3169,-4.191531E-05
427.4169,-4.193603E-05
427.5169,-4.190683E-05
427.6169,-4.188517E-05
427.7169,-4.188894E-05
427.8169,-4.188989E-05
427.9169,-4.188424E-05
428.0169,-4.187576E-05
428.1169,-4.186351E-05
428.2169,-4.183338E-05
428.3169,-4.186822E-05
428.4169,-4.186446E-05
428.5169,-4.184563E-05
428.6169,-4.184939E-05
428.7169,-4.183056E-05
428.817,-4.18202E-05
428.917,-4.183338E-05
429.017,-4.182113E-05
429.117,-4.181831E-05
429.217,-4.180701E-05
429.317,-4.180607E-05
429.417,-4.178347E-05
429.517,-4.179382E-05
429.617,-4.180136E-05
429.717,-4.179288E-05
429.817,-4.178535E-05
429.917,-4.176369E-05
430.017,-4.175239E-05
430.117,-4.179382E-05
430.217,-4.177688E-05
430.317,-4.17684E-05
430.4171,-4.175427E-05
430.5171,-4.173921E-05
430.6171,-4.174768E-05
430.7171,-4.175051E-05
430.8171,-4.173073E-05
430.9171,-4.17345E-05
431.0171,-4.173356E-05
431.1171,-4.170531E-05
431.2171,-4.170625E-05
431.3171,-4.171189E-05
431.4171,-4.171001E-05
431.5171,-4.169871E-05
431.6171,-4.170719E-05
431.7171,-4.171189E-05
431.8171,-4.168458E-05
431.9171,-4.169495E-05
432.0172,-4.166763E-05
432.1172,-4.167611E-05
432.2172,-4.169024E-05
432.3172,-4.16601E-05
432.4172,-4.166198E-05
432.5172,-4.166481E-05
432.6172,-4.163562E-05
432.7172,-4.164032E-05
432.8172,-4.164315E-05
432.9172,-4.163467E-05
433.0172,-4.164127E-05
433.1172,-4.165351E-05
433.2172,-4.163091E-05
433.3172,-4.160925E-05
433.4172,-4.163844E-05
433.5172,-4.163279E-05
433.6172,-4.160454E-05
433.7173,-4.159889E-05
433.8173,-4.161207E-05
433.9173,-4.159136E-05
434.0173,-4.162149E-05
434.1173,-4.158476E-05
434.2173,-4.156028E-05
434.3173,-4.15923E-05
434.4173,-4.157252E-05
434.5173,-4.156969E-05
434.6173,-4.157629E-05
434.7173,-4.158006E-05
434.8173,-4.156405E-05
434.9173,-4.158194E-05
435.0173,-4.155557E-05
435.1173,-4.153956E-05
435.2173,-4.152073E-05
435.3174,-4.153203E-05
435.4174,-4.153956E-05
435.5174,-4.154992E-05
435.6174,-4.152637E-05
435.7174,-4.151319E-05
435.8174,-4.153109E-05
435.9174,-4.154992E-05
436.0174,-4.151131E-05
436.1174,-4.152355E-05
436.2174,-4.150378E-05
436.3174,-4.148776E-05
436.4174,-4.150283E-05
436.5174,-4.151037E-05
436.6174,-4.145951E-05
436.7174,-4.145951E-05
436.8174,-4.148776E-05
436.9174,-4.146422E-05
437.0175,-4.147929E-05
437.1175,-4.148117E-05
437.2175,-4.14614E-05
437.3175,-4.148965E-05
437.4175,-4.14614E-05
437.5175,-4.144256E-05
437.6175,-4.145292E-05
437.7175,-4.14435E-05
437.8175,-4.144539E-05
437.9175,-4.145763E-05
438.0175,-4.144539E-05
438.1175,-4.146422E-05
438.2175,-4.14322E-05
438.3175,-4.142749E-05
438.4175,-4.138229E-05
438.5175,-4.14096E-05
438.6176,-4.143032E-05
438.7176,-4.139453E-05
438.8176,-4.138323E-05
438.9176,-4.140772E-05
439.0176,-4.142561E-05
439.1176,-4.139924E-05
439.2176,-4.139265E-05
439.3176,-4.13644E-05
439.4176,-4.137287E-05
439.5176,-4.140395E-05
439.6176,-4.137099E-05
439.7176,-4.134933E-05
439.8176,-4.138041E-05
439.9176,-4.135875E-05
440.0176,-4.13578E-05
440.1176,-4.134086E-05
440.2177,-4.131919E-05
440.3177,-4.133991E-05
440.4177,-4.135875E-05
440.5177,-4.134651E-05
440.6177,-4.131354E-05
440.7177,-4.133614E-05
440.8177,-4.132391E-05
440.9177,-4.128812E-05
441.0177,-4.131637E-05
441.1177,-4.132108E-05
441.2177,-4.129942E-05
441.3177,-4.129283E-05
441.4177,-4.128812E-05
441.5177,-4.129283E-05
441.6177,-4.130601E-05
441.7177,-4.129848E-05
441.8177,-4.127587E-05
441.9178,-4.12787E-05
442.0178,-4.129848E-05
442.1178,-4.126457E-05
442.2178,-4.128623E-05
442.3178,-4.126928E-05
442.4178,-4.125139E-05
442.5178,-4.125798E-05
442.6178,-4.123915E-05
442.7178,-4.124009E-05
442.8178,-4.125233E-05
442.9178,-4.123821E-05
443.0178,-4.122973E-05
443.1178,-4.124291E-05
443.2178,-4.121749E-05
443.3178,-4.124386E-05
443.4178,-4.12674E-05
443.5179,-4.12109E-05
443.6179,-4.119677E-05
443.7179,-4.12156E-05
443.8179,-4.121655E-05
443.9179,-4.121466E-05
444.0179,-4.120054E-05
444.1179,-4.118829E-05
444.2179,-4.115628E-05
444.3179,-4.119394E-05
444.4179,-4.117888E-05
444.5179,-4.118076E-05
444.6179,-4.118076E-05
444.7179,-4.115628E-05
444.8179,-4.114121E-05
444.9179,-4.114592E-05
445.0179,-4.114027E-05
445.118,-4.11591E-05
445.218,-4.115345E-05
445.318,-4.112332E-05
445.418,-4.113744E-05
445.518,-4.113744E-05
445.618,-4.113179E-05
445.718,-4.112614E-05
445.818,-4.110919E-05
445.918,-4.109506E-05
446.018,-4.111955E-05
446.118,-4.111578E-05
446.218,-4.107717E-05
446.318,-4.107811E-05
446.418,-4.111295E-05
446.518,-4.109035E-05
446.618,-4.110825E-05
446.718,-4.108282E-05
446.8181,-4.109035E-05
446.9181,-4.108376E-05
447.0181,-4.109789E-05
447.1181,-4.107152E-05
447.2181,-4.104515E-05
447.3181,-4.104421E-05
447.4181,-4.104044E-05
447.5181,-4.107246E-05
447.6181,-4.104421E-05
447.7181,-4.102066E-05
447.8181,-4.102255E-05
447.9181,-4.102066E-05
448.0181,-4.101972E-05
448.1181,-4.103385E-05
448.2181,-4.102914E-05
448.3181,-4.099901E-05
448.4182,-4.100371E-05
448.5182,-4.102914E-05
448.6182,-4.100466E-05
448.7182,-4.100089E-05
448.8182,-4.098865E-05
448.9182,-4.101784E-05
449.0182,-4.0983E-05
449.1182,-4.098111E-05
449.2182,-4.096887E-05
449.3182,-4.099618E-05
449.4182,-4.097075E-05
449.5182,-4.094627E-05
449.6182,-4.095192E-05
449.7182,-4.096699E-05
449.8182,-4.094815E-05
449.9182,-4.09425E-05
450.0182,-4.093779E-05
450.1183,-4.092084E-05
450.2183,-4.094909E-05
450.3183,-4.094156E-05
450.4183,-4.089165E-05
450.5183,-4.09199E-05
450.6183,-4.093685E-05
450.7183,-4.090483E-05
450.8183,-4.089353E-05
450.9183,-4.093591E-05
451.0183,-4.093685E-05
451.1183,-4.091896E-05
451.2183,-4.090483E-05
451.3183,-4.088411E-05
451.4183,-4.085775E-05
451.5183,-4.088788E-05
451.6183,-4.088317E-05
451.7184,-4.087187E-05
451.8184,-4.0886E-05
451.9184,-4.083044E-05
452.0184,-4.085492E-05
452.1184,-4.085304E-05
452.2184,-4.08342E-05
452.3184,-4.083044E-05
452.4184,-4.084833E-05
452.5184,-4.086622E-05
452.6184,-4.08229E-05
452.7184,-4.083138E-05
452.8184,-4.083985E-05
452.9184,-4.081819E-05
453.0184,-4.082855E-05
453.1184,-4.082855E-05
453.2184,-4.080501E-05
453.3185,-4.080501E-05
453.4185,-4.0789E-05
453.5185,-4.080595E-05
453.6185,-4.081348E-05
453.7185,-4.081254E-05
453.8185,-4.0789E-05
453.9185,-4.078429E-05
454.0185,-4.079936E-05
454.1185,-4.078052E-05
454.2185,-4.080313E-05
454.3185,-4.077488E-05
454.4185,-4.075321E-05
454.5185,-4.077676E-05
454.6185,-4.074568E-05
454.7185,-4.072778E-05
454.8185,-4.074756E-05
454.9185,-4.07664E-05
455.0186,-4.073626E-05
455.1186,-4.073721E-05
455.2186,-4.07325E-05
455.3186,-4.069671E-05
455.4186,-4.07551E-05
455.5186,-4.07146E-05
455.6186,-4.07033E-05
455.7186,-4.07212E-05
455.8186,-4.070895E-05
455.9186,-4.069294E-05
456.0186,-4.070047E-05
456.1186,-4.067882E-05
456.2186,-4.066469E-05
456.3186,-4.070707E-05
456.4186,-4.069389E-05
456.5186,-4.065621E-05
456.6187,-4.065621E-05
456.7187,-4.065339E-05
456.8187,-4.06468E-05
456.9187,-4.067976E-05
457.0187,-4.064021E-05
457.1187,-4.061384E-05
457.2187,-4.065527E-05
457.3187,-4.064962E-05
457.4187,-4.06176E-05
457.5187,-4.064021E-05
457.6187,-4.062985E-05
457.7187,-4.062137E-05
457.8187,-4.062796E-05
457.9187,-4.0595E-05
458.0187,-4.061478E-05
458.1187,-4.059406E-05
458.2188,-4.061007E-05
458.3188,-4.060065E-05
458.4188,-4.058276E-05
458.5188,-4.059124E-05
458.6188,-4.057052E-05
458.7188,-4.056204E-05
458.8188,-4.057428E-05
458.9188,-4.055075E-05
459.0188,-4.055922E-05
459.1188,-4.055828E-05
459.2188,-4.054603E-05
459.3188,-4.056016E-05
459.4188,-4.056393E-05
459.5188,-4.055357E-05
459.6188,-4.052626E-05
459.7188,-4.053756E-05
459.8188,-4.053097E-05
459.9189,-4.054038E-05
460.0189,-4.053097E-05
460.1189,-4.0482E-05
460.2189,-4.052249E-05
460.3189,-4.052344E-05
460.4189,-4.051778E-05
460.5189,-4.050837E-05
460.6189,-4.049801E-05
460.7189,-4.0482E-05
460.8189,-4.049706E-05
460.9189,-4.051119E-05
461.0189,-4.048482E-05
461.1189,-4.045468E-05
461.2189,-4.047352E-05
461.3189,-4.048576E-05
461.4189,-4.047258E-05
461.519,-4.046128E-05
461.619,-4.045186E-05
461.719,-4.044433E-05
461.819,-4.046881E-05
461.919,-4.045468E-05
462.019,-4.044244E-05
462.119,-4.044056E-05
462.219,-4.04349E-05
462.319,-4.044056E-05
462.419,-4.043585E-05
462.519,-4.038971E-05
462.619,-4.045186E-05
462.719,-4.046033E-05
462.819,-4.040949E-05
462.919,-4.039536E-05
463.019,-4.041231E-05
463.119,-4.041514E-05
463.2191,-4.038594E-05
463.3191,-4.039818E-05
463.4191,-4.038876E-05
463.5191,-4.037276E-05
463.6191,-4.039253E-05
463.7191,-4.034545E-05
463.8191,-4.037087E-05
463.9191,-4.040759E-05
464.0191,-4.040383E-05
464.1191,-4.035015E-05
464.2191,-4.039347E-05
464.3191,-4.039442E-05
464.4191,-4.035486E-05
464.5191,-4.036617E-05
464.6191,-4.036993E-05
464.7191,-4.032849E-05
464.8192,-4.034262E-05
464.9192,-4.032944E-05
465.0192,-4.031343E-05
465.1192,-4.032002E-05
465.2192,-4.034639E-05
465.3192,-4.033038E-05
465.4192,-4.031437E-05
465.5192,-4.031154E-05
465.6192,-4.029553E-05
465.7192,-4.033414E-05
465.8192,-4.032661E-05
465.9192,-4.028235E-05
466.0192,-4.031343E-05
466.1192,-4.029742E-05
466.2192,-4.028423E-05
466.3192,-4.031154E-05
466.4193,-4.029365E-05
466.5193,-4.026257E-05
466.6193,-4.029365E-05
466.7193,-4.027952E-05
466.8193,-4.02541E-05
466.9193,-4.02767E-05
467.0193,-4.027387E-05
467.1193,-4.026917E-05
467.2193,-4.02767E-05
467.3193,-4.024939E-05
467.4193,-4.024468E-05
467.5193,-4.024562E-05
467.6193,-4.026634E-05
467.7193,-4.023432E-05
467.8193,-4.023244E-05
467.9193,-4.022867E-05
468.0193,-4.022208E-05
468.1194,-4.022302E-05
468.2194,-4.022396E-05
468.3194,-4.019853E-05
468.4194,-4.021831E-05
468.5194,-4.019948E-05
468.6194,-4.020983E-05
468.7194,-4.021172E-05
468.8194,-4.022867E-05
468.9194,-4.019288E-05
469.0194,-4.019006E-05
469.1194,-4.019288E-05
469.2194,-4.018064E-05
469.3194,-4.020513E-05
469.4194,-4.019288E-05
469.5194,-4.015333E-05
469.6194,-4.017687E-05
469.7195,-4.01797E-05
469.8195,-4.017311E-05
469.9195,-4.017405E-05
470.0195,-4.018629E-05
470.1195,-4.01458E-05
470.2195,-4.018064E-05
470.3195,-4.016934E-05
470.4195,-4.013356E-05
470.5195,-4.01505E-05
470.6195,-4.018064E-05
470.7195,-4.013732E-05
470.8195,-4.012414E-05
470.9195,-4.012885E-05
471.0195,-4.014297E-05
471.1195,-4.017593E-05
471.2195,-4.013826E-05
471.3195,-4.01345E-05
471.4196,-4.011566E-05
471.5196,-4.011095E-05
471.6196,-4.010813E-05
471.7196,-4.013261E-05
471.8196,-4.010059E-05
471.9196,-4.008647E-05
472.0196,-4.012131E-05
472.1196,-4.012979E-05
472.2196,-4.009024E-05
472.3196,-4.009683E-05
472.4196,-4.009494E-05
472.5196,-4.006104E-05
472.6196,-4.010718E-05
472.7196,-4.009024E-05
472.8196,-4.006669E-05
472.9196,-4.005633E-05
473.0197,-4.00827E-05
473.1197,-4.006481E-05
473.2197,-4.007893E-05
473.3197,-4.00827E-05
473.4197,-4.004409E-05
473.5197,-4.007517E-05
473.6197,-4.007988E-05
473.7197,-4.006293E-05
473.8197,-4.003185E-05
473.9197,-4.005916E-05
474.0197,-4.004315E-05
474.1197,-4.005445E-05
474.2197,-4.002808E-05
474.3197,-4.001395E-05
474.4197,-4.004126E-05
474.5197,-4.004692E-05
474.6198,-4.00196E-05
474.7198,-4.002432E-05
474.8198,-4.002243E-05
474.9198,-4.002055E-05
475.0198,-4.002149E-05
475.1198,-4.001772E-05
475.2198,-3.999889E-05
475.3198,-4.000172E-05
475.4198,-4.002997E-05
475.5198,-3.999229E-05
475.6198,-4.000736E-05
475.7198,-4.002149E-05
475.8198,-3.999794E-05
475.9198,-4.002055E-05
476.0198,-3.998759E-05
476.1198,-3.998194E-05
476.2198,-4.000077E-05
476.3199,-4.000642E-05
476.4199,-3.998853E-05
476.5199,-3.996781E-05
476.6199,-3.997063E-05
476.7199,-3.995839E-05
476.8199,-3.998476E-05
476.9199,-3.999324E-05
477.0199,-3.994144E-05
477.1199,-3.999512E-05
477.2199,-3.999418E-05
477.3199,-3.994521E-05
477.4199,-3.996781E-05
477.5199,-3.996593E-05
477.6199,-3.996499E-05
477.7199,-3.997346E-05
477.8199,-3.997817E-05
477.92,-3.996969E-05
478.02,-3.994709E-05
478.12,-3.995839E-05
478.22,-3.994991E-05
478.32,-3.994709E-05
478.42,-3.996216E-05
478.52,-3.992543E-05
478.62,-3.993862E-05
478.72,-3.993485E-05
478.82,-3.990754E-05
478.92,-3.991696E-05
479.02,-3.992731E-05
479.12,-3.992167E-05
479.22,-3.990095E-05
479.32,-3.99179E-05
479.42,-3.990848E-05
479.5201,-3.989153E-05
479.6201,-3.988682E-05
479.7201,-3.988399E-05
479.8201,-3.990377E-05
479.9201,-3.988965E-05
480.0201,-3.988399E-05
480.1201,-3.988682E-05
480.2201,-3.990472E-05
480.3201,-3.990754E-05
480.4201,-3.989153E-05
480.5201,-3.987175E-05
480.6201,-3.98614E-05
480.7201,-3.985574E-05
480.8201,-3.98661E-05
480.9201,-3.984727E-05
481.0201,-3.985762E-05
481.1201,-3.984444E-05
481.2202,-3.983126E-05
481.3202,-3.985198E-05
481.4202,-3.982749E-05
481.5202,-3.983691E-05
481.6202,-3.983974E-05
481.7202,-3.982749E-05
481.8202,-3.982843E-05
481.9202,-3.982184E-05
482.0202,-3.982561E-05
482.1202,-3.981242E-05
482.2202,-3.981619E-05
482.3202,-3.980206E-05
482.4202,-3.979171E-05
482.5202,-3.980583E-05
482.6202,-3.980395E-05
482.7202,-3.982467E-05
482.8203,-3.979076E-05
482.9203,-3.979171E-05
483.0203,-3.979171E-05
483.1203,-3.978041E-05
483.2203,-3.97983E-05
483.3203,-3.977287E-05
483.4203,-3.981525E-05
483.5203,-3.977381E-05
483.6203,-3.975215E-05
483.7203,-3.977287E-05
483.8203,-3.978794E-05
483.9203,-3.977475E-05
484.0203,-3.976157E-05
484.1203,-3.977475E-05
484.2203,-3.978511E-05
484.3203,-3.975404E-05
484.4203,-3.976252E-05
484.5204,-3.975969E-05
484.6204,-3.973614E-05
484.7204,-3.975592E-05
484.8204,-3.973237E-05
484.9204,-3.97465E-05
485.0204,-3.975027E-05
485.1204,-3.975215E-05
485.2204,-3.971354E-05
485.3204,-3.973144E-05
485.4204,-3.975122E-05
485.5204,-3.972014E-05
485.6204,-3.972861E-05
485.7204,-3.971825E-05
485.8204,-3.970506E-05
485.9204,-3.972108E-05
486.0204,-3.971448E-05
486.1205,-3.969377E-05
486.2205,-3.971825E-05
486.3205,-3.969377E-05
486.4205,-3.969471E-05
486.5205,-3.970224E-05
486.6205,-3.968718E-05
486.7205,-3.969283E-05
486.8205,-3.971166E-05
486.9205,-3.969094E-05
487.0205,-3.968058E-05
487.1205,-3.968529E-05
487.2205,-3.97013E-05
487.3205,-3.967776E-05
487.4205,-3.967116E-05
487.5205,-3.967305E-05
487.6205,-3.966552E-05
487.7206,-3.968153E-05
487.8206,-3.967681E-05
487.9206,-3.963255E-05
488.0206,-3.966175E-05
488.1206,-3.967964E-05
488.2206,-3.965515E-05
488.3206,-3.965421E-05
488.4206,-3.962314E-05
488.5206,-3.964009E-05
488.6206,-3.967211E-05
488.7206,-3.966269E-05
488.8206,-3.961655E-05
488.9206,-3.967022E-05
489.0206,-3.965704E-05
489.1206,-3.962408E-05
489.2206,-3.963161E-05
489.3206,-3.962879E-05
489.4207,-3.964009E-05
489.5207,-3.962314E-05
489.6207,-3.963349E-05
489.7207,-3.959771E-05
489.8207,-3.964197E-05
489.9207,-3.962314E-05
490.0207,-3.956852E-05
490.1207,-3.961184E-05
490.2207,-3.963349E-05
490.3207,-3.958923E-05
490.4207,-3.958359E-05
490.5207,-3.958923E-05
490.6207,-3.957982E-05
490.7207,-3.960618E-05
490.8207,-3.958923E-05
490.9207,-3.95478E-05
491.0208,-3.956475E-05
491.1208,-3.957982E-05
491.2208,-3.955345E-05
491.3208,-3.9593E-05
491.4208,-3.955721E-05
491.5208,-3.95478E-05
491.6208,-3.956475E-05
491.7208,-3.957322E-05
491.8208,-3.954591E-05
491.9208,-3.955345E-05
492.0208,-3.954309E-05
492.1208,-3.952896E-05
492.2208,-3.95591E-05
492.3208,-3.956852E-05
492.4208,-3.952426E-05
492.5208,-3.953179E-05
492.6208,-3.951766E-05
492.7209,-3.952143E-05
492.8209,-3.952802E-05
492.9209,-3.951766E-05
493.0209,-3.950636E-05
493.1209,-3.95252E-05
493.2209,-3.951107E-05
493.3209,-3.94734E-05
493.4209,-3.950071E-05
493.5209,-3.952426E-05
493.6209,-3.948847E-05
493.7209,-3.948564E-05
493.8209,-3.949129E-05
493.9209,-3.947717E-05
494.0209,-3.951107E-05
494.1209,-3.949789E-05
494.2209,-3.945268E-05
494.321,-3.946587E-05
494.421,-3.947999E-05
494.521,-3.947057E-05
494.621,-3.947434E-05
494.721,-3.94508E-05
494.821,-3.944232E-05
494.921,-3.946493E-05
495.021,-3.946493E-05
495.121,-3.943008E-05
495.221,-3.944515E-05
495.321,-3.946116E-05
495.421,-3.944703E-05
495.521,-3.943385E-05
495.621,-3.941878E-05
495.721,-3.945174E-05
495.821,-3.948941E-05
495.9211,-3.946398E-05
496.0211,-3.94169E-05
496.1211,-3.942914E-05
496.2211,-3.944044E-05
496.3211,-3.942066E-05
496.4211,-3.943856E-05
496.5211,-3.940371E-05
496.6211,-3.938488E-05
496.7211,-3.940465E-05
496.8211,-3.942443E-05
496.9211,-3.937923E-05
497.0211,-3.939618E-05
497.1211,-3.938582E-05
497.2211,-3.938582E-05
497.3211,-3.940371E-05
497.4211,-3.938111E-05
497.5211,-3.935663E-05
497.6212,-3.9383E-05
497.7212,-3.938771E-05
497.8212,-3.93651E-05
497.9212,-3.936698E-05
498.0212,-3.93764E-05
498.1212,-3.937075E-05
498.2212,-3.939995E-05
498.3212,-3.939336E-05
498.4212,-3.936322E-05
498.5212,-3.933497E-05
498.6212,-3.93764E-05
498.7212,-3.935568E-05
498.8212,-3.935757E-05
498.9212,-3.936416E-05
499.0212,-3.931802E-05
499.1212,-3.934156E-05
499.2213,-3.934721E-05
499.3213,-3.931614E-05
499.4213,-3.931519E-05
499.5213,-3.93425E-05
499.6213,-3.932932E-05
499.7213,-3.930766E-05
499.8213,-3.932837E-05
499.9213,-3.931236E-05
500.0213,-3.932461E-05
500.1213,-3.929164E-05
500.2213,-3.930295E-05
500.3213,-3.93086E-05
500.4213,-3.929824E-05
500.5213,-3.929918E-05
500.6213,-3.930483E-05
500.7213,-3.931425E-05
500.8214,-3.928223E-05
500.9214,-3.928788E-05
501.0214,-3.927093E-05
501.1214,-3.92747E-05
501.2214,-3.928599E-05
501.3214,-3.929447E-05
501.4214,-3.926245E-05
501.5214,-3.926622E-05
501.6214,-3.927846E-05
501.7214,-3.924456E-05
501.8214,-3.927093E-05
501.9214,-3.929541E-05
502.0214,-3.925398E-05
502.1214,-3.924079E-05
502.2214,-3.925303E-05
502.3214,-3.92455E-05
502.4214,-3.924362E-05
502.5215,-3.925869E-05
502.6215,-3.922855E-05
502.7215,-3.921537E-05
502.8215,-3.923703E-05
502.9215,-3.920595E-05
503.0215,-3.921913E-05
503.1215,-3.923326E-05
503.2215,-3.920877E-05
503.3215,-3.920689E-05
503.4215,-3.922007E-05
503.5215,-3.920784E-05
503.6215,-3.920595E-05
503.7215,-3.922572E-05
503.8215,-3.920313E-05
503.9215,-3.918712E-05
504.0215,-3.919465E-05
504.1216,-3.920501E-05
504.2216,-3.920784E-05
504.3216,-3.921725E-05
504.4216,-3.918052E-05
504.5216,-3.917958E-05
504.6216,-3.919841E-05
504.7216,-3.920124E-05
504.8216,-3.919747E-05
504.9216,-3.916546E-05
505.0216,-3.916263E-05
505.1216,-3.915887E-05
505.2216,-3.917864E-05
505.3216,-3.915133E-05
505.4216,-3.917676E-05
505.5216,-3.916451E-05
505.6216,-3.913532E-05
505.7216,-3.914756E-05
505.8217,-3.91664E-05
505.9217,-3.914474E-05
506.0217,-3.914191E-05
506.1217,-3.915039E-05
506.2217,-3.914474E-05
506.3217,-3.912025E-05
506.4217,-3.91325E-05
506.5217,-3.912025E-05
506.6217,-3.913721E-05
506.7217,-3.912214E-05
506.8217,-3.910989E-05
506.9217,-3.909388E-05
507.0217,-3.911554E-05
507.1217,-3.911272E-05
507.2217,-3.912402E-05
507.3217,-3.911272E-05
507.4218,-3.906281E-05
507.5218,-3.909388E-05
507.6218,-3.910707E-05
507.7218,-3.909483E-05
507.8218,-3.908635E-05
507.9218,-3.910236E-05
508.0218,-3.907882E-05
508.1218,-3.909953E-05
508.2218,-3.908352E-05
508.3218,-3.907222E-05
508.4218,-3.906092E-05
508.5218,-3.9092E-05
508.6218,-3.906092E-05
508.7218,-3.906657E-05
508.8218,-3.905999E-05
508.9218,-3.902043E-05
509.0219,-3.906092E-05
509.1219,-3.907599E-05
509.2219,-3.904586E-05
509.3219,-3.902514E-05
509.4219,-3.903644E-05
509.5219,-3.904962E-05
509.6219,-3.904868E-05
509.7219,-3.906845E-05
509.8219,-3.901761E-05
509.9219,-3.902608E-05
510.0219,-3.902702E-05
510.1219,-3.901007E-05
510.2219,-3.902043E-05
510.3219,-3.904586E-05
510.4219,-3.900819E-05
510.5219,-3.90289E-05
510.6219,-3.901478E-05
510.722,-3.898841E-05
510.822,-3.900065E-05
510.922,-3.902326E-05
511.022,-3.899406E-05
511.122,-3.899406E-05
511.222,-3.897805E-05
511.322,-3.897052E-05
511.422,-3.899406E-05
511.522,-3.899688E-05
511.622,-3.897711E-05
511.722,-3.8995E-05
511.822,-3.900442E-05
511.922,-3.898276E-05
512.022,-3.898464E-05
512.122,-3.898653E-05
512.222,-3.897711E-05
512.322,-3.897805E-05
512.4219,-3.89837E-05
512.5219,-3.897805E-05
512.6219,-3.896487E-05
512.7219,-3.899218E-05
512.8218,-3.897711E-05
512.9218,-3.895733E-05
513.0218,-3.89611E-05
513.1218,-3.89498E-05
513.2217,-3.896392E-05
513.3217,-3.89724E-05
513.4217,-3.892531E-05
513.5217,-3.892908E-05
513.6216,-3.895074E-05
513.7216,-3.891778E-05
513.8216,-3.890083E-05
513.9216,-3.892249E-05
514.0215,-3.894886E-05
514.1215,-3.891872E-05
514.2215,-3.891025E-05
514.3215,-3.8898E-05
514.4214,-3.891213E-05
514.5214,-3.89319E-05
514.6214,-3.891401E-05
514.7214,-3.887823E-05
514.8214,-3.8898E-05
514.9213,-3.89159E-05
515.0213,-3.891025E-05
515.1213,-3.890083E-05
515.2213,-3.888953E-05
515.3212,-3.885845E-05
515.4212,-3.889047E-05
515.5212,-3.88933E-05
515.6212,-3.889141E-05
515.7211,-3.88867E-05
515.8211,-3.886881E-05
515.9211,-3.886693E-05
516.0211,-3.886787E-05
516.121,-3.887163E-05
516.221,-3.886221E-05
516.321,-3.885374E-05
516.421,-3.885374E-05
516.5209,-3.88349E-05
516.6209,-3.88528E-05
516.7209,-3.884998E-05
516.8209,-3.885468E-05
516.9208,-3.884998E-05
517.0208,-3.883585E-05
517.1208,-3.884809E-05
517.2208,-3.882926E-05
517.3207,-3.883773E-05
517.4207,-3.879818E-05
517.5207,-3.881795E-05
517.6207,-3.882267E-05
517.7206,-3.879912E-05
517.8206,-3.883208E-05
517.9206,-3.881702E-05
518.0206,-3.878499E-05
518.1205,-3.881702E-05
518.2205,-3.881607E-05
518.3205,-3.879159E-05
518.4205,-3.880289E-05
518.5204,-3.880006E-05
518.6204,-3.880383E-05
518.7204,-3.881795E-05
518.8204,-3.878499E-05
518.9203,-3.87558E-05
519.0203,-3.878782E-05
519.1203,-3.88123E-05
519.2203,-3.878311E-05
519.3203,-3.877558E-05
519.4202,-3.876145E-05
519.5202,-3.876711E-05
519.6202,-3.876804E-05
519.7202,-3.876804E-05
519.8201,-3.877369E-05
519.9201,-3.875769E-05
520.0201,-3.875674E-05
520.1201,-3.873132E-05
520.22,-3.876428E-05
520.32,-3.875957E-05
520.42,-3.871531E-05
520.52,-3.872849E-05
520.6199,-3.872567E-05
520.7199,-3.872943E-05
520.8199,-3.87445E-05
520.9199,-3.876239E-05
521.0198,-3.87219E-05
521.1198,-3.873979E-05
521.2198,-3.872849E-05
521.3198,-3.871248E-05
521.4197,-3.873132E-05
521.5197,-3.872567E-05
521.6197,-3.871719E-05
521.7197,-3.871719E-05
521.8196,-3.871813E-05
521.9196,-3.869742E-05
522.0196,-3.873226E-05
522.1196,-3.871531E-05
522.2195,-3.870495E-05
522.3195,-3.86993E-05
522.4195,-3.870307E-05
522.5195,-3.868706E-05
522.6194,-3.870589E-05
522.7194,-3.870683E-05
522.8194,-3.869553E-05
522.9194,-3.869365E-05
523.0193,-3.868141E-05
523.1193,-3.869365E-05
523.2193,-3.868612E-05
523.3193,-3.866916E-05
523.4193,-3.868329E-05
523.5192,-3.868988E-05
523.6192,-3.870683E-05
523.7192,-3.866728E-05
523.8192,-3.867199E-05
523.9191,-3.866728E-05
524.0191,-3.866163E-05
524.1191,-3.86475E-05
524.2191,-3.866445E-05
524.319,-3.864562E-05
524.419,-3.865692E-05
524.519,-3.86588E-05
524.619,-3.863244E-05
524.7189,-3.864656E-05
524.8189,-3.867105E-05
524.9189,-3.865786E-05
525.0189,-3.864562E-05
525.1188,-3.864562E-05
525.2188,-3.861925E-05
525.3188,-3.867387E-05
525.4188,-3.864562E-05
525.5187,-3.862208E-05
525.6187,-3.864185E-05
525.7187,-3.86362E-05
525.8187,-3.864468E-05
525.9186,-3.862584E-05
526.0186,-3.860324E-05
526.1186,-3.862208E-05
526.2186,-3.864279E-05
526.3185,-3.865127E-05
526.4185,-3.861643E-05
526.5185,-3.861831E-05
526.6185,-3.864279E-05
526.7184,-3.86249E-05
526.8184,-3.862302E-05
526.9184,-3.861549E-05
527.0184,-3.860418E-05
527.1183,-3.860795E-05
527.2183,-3.862584E-05
527.3183,-3.862113E-05
527.4183,-3.860418E-05
527.5182,-3.861454E-05
527.6182,-3.857875E-05
527.7182,-3.861454E-05
527.8182,-3.860513E-05
527.9182,-3.858723E-05
528.0181,-3.860136E-05
528.1181,-3.859383E-05
528.2181,-3.857311E-05
528.3181,-3.858629E-05
528.418,-3.858818E-05
528.518,-3.855804E-05
528.618,-3.860136E-05
528.718,-3.859288E-05
528.8179,-3.856275E-05
528.9179,-3.858253E-05
529.0179,-3.857875E-05
529.1179,-3.85797E-05
529.2178,-3.858064E-05
529.3178,-3.854674E-05
529.4178,-3.857028E-05
529.5178,-3.862113E-05
529.6177,-3.861172E-05
529.7177,-3.856652E-05
529.8177,-3.85458E-05
529.9177,-3.857405E-05
530.0176,-3.85684E-05
530.1176,-3.859853E-05
530.2176,-3.856087E-05
530.3176,-3.85279E-05
530.4175,-3.855615E-05
530.5175,-3.85618E-05
530.6175,-3.853449E-05
530.7175,-3.854392E-05
530.8174,-3.856934E-05
530.9174,-3.853732E-05
531.0174,-3.855804E-05
531.1174,-3.855522E-05
531.2173,-3.851566E-05
531.3173,-3.854485E-05
531.4173,-3.853544E-05
531.5173,-3.849871E-05
531.6172,-3.853638E-05
531.7172,-3.852508E-05
531.8172,-3.850436E-05
531.9172,-3.852508E-05
532.0172,-3.852696E-05
532.1171,-3.850718E-05
532.2171,-3.852696E-05
532.3171,-3.851284E-05
532.4171,-3.849306E-05
532.517,-3.852979E-05
532.617,-3.85279E-05
532.717,-3.850907E-05
532.817,-3.848929E-05
532.9169,-3.849211E-05
533.0169,-3.849776E-05
533.1169,-3.852979E-05
533.2169,-3.849494E-05
533.3168,-3.84714E-05
533.4168,-3.848835E-05
533.5168,-3.849682E-05
533.6168,-3.848176E-05
533.7167,-3.850907E-05
533.8167,-3.848553E-05
533.9167,-3.846763E-05
534.0167,-3.848082E-05
534.1166,-3.848647E-05
534.2166,-3.845539E-05
534.3166,-3.847799E-05
534.4166,-3.851378E-05
534.5165,-3.848364E-05
534.6165,-3.845256E-05
534.7165,-3.847893E-05
534.8165,-3.846951E-05
534.9164,-3.848647E-05
535.0164,-3.848176E-05
535.1164,-3.844221E-05
535.2164,-3.846198E-05
535.3163,-3.847234E-05
535.4163,-3.845351E-05
535.5163,-3.846857E-05
535.6163,-3.846669E-05
535.7162,-3.845256E-05
535.8162,-3.846198E-05
535.9162,-3.84601E-05
536.0162,-3.844221E-05
536.1161,-3.843185E-05
536.2161,-3.845916E-05
536.3161,-3.842525E-05
536.4161,-3.845916E-05
536.5161,-3.842243E-05
536.616,-3.842713E-05
536.716,-3.847234E-05
536.816,-3.845162E-05
536.916,-3.841772E-05
537.0159,-3.842713E-05
537.1159,-3.844221E-05
537.2159,-3.842243E-05
537.3159,-3.84488E-05
537.4158,-3.844786E-05
537.5158,-3.8397E-05
537.6158,-3.842808E-05
537.7158,-3.84375E-05
537.8157,-3.84149E-05
537.9157,-3.8397E-05
538.0157,-3.840548E-05
538.1157,-3.84036E-05
538.2156,-3.841772E-05
538.3156,-3.842149E-05
538.4156,-3.840454E-05
538.5156,-3.843279E-05
538.6155,-3.841301E-05
538.7155,-3.838476E-05
538.8155,-3.8397E-05
538.9155,-3.84149E-05
539.0154,-3.838947E-05
539.1154,-3.841866E-05
539.2154,-3.838759E-05
539.3154,-3.838382E-05
539.4153,-3.840548E-05
539.5153,-3.837817E-05
539.6153,-3.836687E-05
539.7153,-3.83857E-05
539.8152,-3.838853E-05
539.9152,-3.835839E-05
540.0152,-3.837817E-05
540.1152,-3.836499E-05
540.2151,-3.836122E-05
540.3151,-3.836781E-05
540.4151,-3.835934E-05
540.5151,-3.832731E-05
540.6151,-3.835651E-05
540.715,-3.834803E-05
540.815,-3.834615E-05
540.915,-3.837252E-05
541.015,-3.835462E-05
541.1149,-3.831884E-05
541.2149,-3.835934E-05
541.3149,-3.836969E-05
541.4149,-3.834615E-05
541.5148,-3.832731E-05
541.6148,-3.832072E-05
541.7148,-3.831978E-05
541.8148,-3.834803E-05
541.9147,-3.835651E-05
542.0147,-3.83113E-05
542.1147,-3.832543E-05
542.2147,-3.834144E-05
542.3146,-3.833485E-05
542.4146,-3.83405E-05
542.5146,-3.832166E-05
542.6146,-3.83066E-05
542.7145,-3.832731E-05
542.8145,-3.836027E-05
542.9145,-3.832543E-05
543.0145,-3.833391E-05
543.1144,-3.832261E-05
543.2144,-3.834144E-05
543.3144,-3.832637E-05
543.4144,-3.831978E-05
543.5143,-3.829812E-05
543.6143,-3.83179E-05
543.7143,-3.834615E-05
543.8143,-3.831225E-05
543.9142,-3.831507E-05
544.0142,-3.829906E-05
544.1142,-3.829153E-05
544.2142,-3.832825E-05
544.3141,-3.833203E-05
544.4141,-3.828682E-05
544.5141,-3.830848E-05
544.6141,-3.83066E-05
544.7141,-3.83E-05
544.814,-3.830095E-05
544.914,-3.829247E-05
545.014,-3.828305E-05
545.114,-3.830095E-05
545.2139,-3.832072E-05
545.3139,-3.827269E-05
545.4139,-3.828965E-05
545.5139,-3.829153E-05
545.6138,-3.828493E-05
545.7138,-3.830189E-05
545.8138,-3.83E-05
545.9138,-3.825198E-05
546.0137,-3.827552E-05
546.1137,-3.82887E-05
546.2137,-3.824727E-05
546.3137,-3.826139E-05
546.4136,-3.827081E-05
546.5136,-3.825009E-05
546.6136,-3.826516E-05
546.7136,-3.829247E-05
546.8135,-3.824161E-05
546.9135,-3.825857E-05
547.0135,-3.825198E-05
547.1135,-3.822372E-05
547.2134,-3.825668E-05
547.3134,-3.824633E-05
547.4134,-3.821713E-05
547.5134,-3.823502E-05
547.6133,-3.823126E-05
547.7133,-3.822278E-05
547.8133,-3.823126E-05
547.9133,-3.822561E-05
548.0132,-3.819736E-05
548.1132,-3.821902E-05
548.2132,-3.82322E-05
548.3132,-3.821054E-05
548.4131,-3.820583E-05
548.5131,-3.819171E-05
548.6131,-3.822278E-05
548.7131,-3.825763E-05
548.813,-3.824161E-05
548.913,-3.820583E-05
549.013,-3.821807E-05
549.113,-3.820866E-05
549.213,-3.819924E-05
549.3129,-3.822937E-05
549.4129,-3.819359E-05
549.5129,-3.81578E-05
549.6129,-3.81983E-05
549.7128,-3.818606E-05
549.8128,-3.815592E-05
549.9128,-3.816816E-05
550.0128,-3.816816E-05
550.1127,-3.816722E-05
550.2127,-3.818606E-05
550.3127,-3.815968E-05
550.4127,-3.815027E-05
550.5126,-3.816628E-05
550.6126,-3.816816E-05
550.7126,-3.813332E-05
550.8126,-3.815592E-05
550.9125,-3.814556E-05
551.0125,-3.81126E-05
551.1125,-3.814179E-05
551.2125,-3.816534E-05
551.3124,-3.812296E-05
551.4124,-3.812955E-05
551.5124,-3.813426E-05
551.6124,-3.810224E-05
551.7123,-3.813426E-05
551.8123,-3.813426E-05
551.9123,-3.810506E-05
552.0123,-3.810601E-05
552.1122,-3.810884E-05
552.2122,-3.810412E-05
552.3122,-3.812014E-05
552.4122,-3.812579E-05
552.5121,-3.808623E-05
552.6121,-3.810506E-05
552.7121,-3.813237E-05
552.8121,-3.811072E-05
552.912,-3.808529E-05
553.012,-3.810224E-05
553.112,-3.809565E-05
553.212,-3.808999E-05
553.312,-3.809377E-05
553.4119,-3.80787E-05
553.5119,-3.808246E-05
553.6119,-3.810601E-05
553.7119,-3.806175E-05
553.8118,-3.805045E-05
553.9118,-3.808434E-05
554.0118,-3.807022E-05
554.1118,-3.806268E-05
554.2117,-3.806363E-05
554.3117,-3.806268E-05
554.4117,-3.805986E-05
554.5117,-3.808434E-05
554.6116,-3.807116E-05
554.7116,-3.80382E-05
554.8116,-3.806928E-05
554.9116,-3.807022E-05
555.0115,-3.802502E-05
555.1115,-3.805233E-05
555.2115,-3.80382E-05
555.3115,-3.804573E-05
555.4114,-3.805892E-05
555.5114,-3.801372E-05
555.6114,-3.801372E-05
555.7114,-3.808906E-05
555.8113,-3.809377E-05
555.9113,-3.801937E-05
556.0113,-3.803067E-05
556.1113,-3.804573E-05
556.2112,-3.80156E-05
556.3112,-3.806646E-05
556.4112,-3.80495E-05
556.5112,-3.802031E-05
556.6111,-3.803067E-05
556.7111,-3.803067E-05
556.8111,-3.800713E-05
556.9111,-3.800713E-05
557.011,-3.800524E-05
557.111,-3.7993E-05
557.211,-3.802502E-05
557.311,-3.800713E-05
557.4109,-3.798923E-05
557.5109,-3.799206E-05
557.6109,-3.799394E-05
557.7109,-3.797982E-05
557.8109,-3.799865E-05
557.9108,-3.799583E-05
558.0108,-3.79638E-05
558.1108,-3.798076E-05
558.2108,-3.798546E-05
558.3107,-3.796098E-05
558.4107,-3.796475E-05
558.5107,-3.797511E-05
558.6107,-3.796946E-05
558.7106,-3.798452E-05
558.8106,-3.797322E-05
558.9106,-3.79704E-05
559.0106,-3.796663E-05
559.1105,-3.797322E-05
559.2105,-3.796192E-05
559.3105,-3.796569E-05
559.4105,-3.797228E-05
559.5104,-3.795345E-05
559.6104,-3.795345E-05
559.7104,-3.792896E-05
559.8104,-3.795251E-05
559.9103,-3.799959E-05
560.0103,-3.796286E-05
560.1103,-3.792802E-05
560.2103,-3.794591E-05
560.3102,-3.795062E-05
560.4102,-3.793838E-05
560.5102,-3.793932E-05
560.6102,-3.794309E-05
560.7101,-3.790919E-05
560.8101,-3.79252E-05
560.9101,-3.793179E-05
561.0101,-3.792143E-05
561.11,-3.795721E-05
561.21,-3.79186E-05
561.31,-3.791578E-05
561.41,-3.792614E-05
561.5099,-3.791107E-05
561.6099,-3.789223E-05
561.7099,-3.792237E-05
561.8099,-3.792143E-05
561.9099,-3.789506E-05
562.0098,-3.791013E-05
562.1098,-3.790542E-05
562.2098,-3.79073E-05
562.3098,-3.792614E-05
562.4097,-3.788941E-05
562.5097,-3.790919E-05
562.6097,-3.790919E-05
562.7097,-3.790542E-05
562.8096,-3.788847E-05
562.9096,-3.7896E-05
563.0096,-3.789412E-05
563.1096,-3.786775E-05
563.2095,-3.789977E-05
563.3095,-3.788753E-05
563.4095,-3.78621E-05
563.5095,-3.789506E-05
563.6094,-3.786587E-05
563.7094,-3.785362E-05
563.8094,-3.788282E-05
563.9094,-3.787528E-05
564.0093,-3.787528E-05
564.1093,-3.787246E-05
564.2093,-3.788376E-05
564.3093,-3.783479E-05
564.4092,-3.785927E-05
564.5092,-3.788376E-05
564.6092,-3.785739E-05
564.7092,-3.787057E-05
564.8091,-3.789412E-05
564.9091,-3.783856E-05
565.0091,-3.785927E-05
565.1091,-3.785645E-05
565.209,-3.784515E-05
565.309,-3.784703E-05
565.409,-3.784891E-05
565.509,-3.78621E-05
565.6089,-3.783856E-05
565.7089,-3.788376E-05
565.8089,-3.787246E-05
565.9089,-3.783479E-05
566.0089,-3.786398E-05
566.1088,-3.784986E-05
566.2088,-3.781125E-05
566.3088,-3.784891E-05
566.4088,-3.784986E-05
566.5087,-3.783291E-05
566.6087,-3.783667E-05
566.7087,-3.785645E-05
566.8087,-3.785174E-05
566.9086,-3.78621E-05
567.0086,-3.784138E-05
567.1086,-3.780653E-05
567.2086,-3.788658E-05
567.3085,-3.784515E-05
567.4085,-3.781407E-05
567.5085,-3.782726E-05
567.6085,-3.783761E-05
567.7084,-3.781313E-05
567.8084,-3.783008E-05
567.9084,-3.780183E-05
568.0084,-3.782443E-05
568.1083,-3.784609E-05
568.2083,-3.782443E-05
568.3083,-3.778205E-05
568.4083,-3.779806E-05
568.5082,-3.781219E-05
568.6082,-3.778864E-05
568.7082,-3.779806E-05
568.8082,-3.781596E-05
568.9081,-3.776792E-05
569.0081,-3.779523E-05
569.1081,-3.779241E-05
569.2081,-3.776322E-05
569.308,-3.779712E-05
569.408,-3.781313E-05
569.508,-3.776981E-05
569.608,-3.778299E-05
569.7079,-3.77717E-05
569.8079,-3.775945E-05
569.9079,-3.780465E-05
570.0079,-3.776133E-05
570.1078,-3.774156E-05
570.2078,-3.778111E-05
570.3078,-3.776133E-05
570.4078,-3.77425E-05
570.5078,-3.776322E-05
570.6077,-3.776698E-05
570.7077,-3.775662E-05
570.8077,-3.778676E-05
570.9077,-3.776227E-05
571.0076,-3.774438E-05
571.1076,-3.776322E-05
571.2076,-3.773873E-05
571.3076,-3.774062E-05
571.4075,-3.776039E-05
571.5075,-3.774156E-05
571.6075,-3.775286E-05
571.7075,-3.776698E-05
571.8074,-3.773026E-05
571.9074,-3.771801E-05
572.0074,-3.774815E-05
572.1074,-3.775474E-05
572.2073,-3.769635E-05
572.3073,-3.772084E-05
572.4073,-3.776792E-05
572.5073,-3.771142E-05
572.6072,-3.768129E-05
572.7072,-3.778676E-05
572.8072,-3.774438E-05
572.9072,-3.771613E-05
573.0071,-3.778111E-05
573.1071,-3.778676E-05
573.2071,-3.774815E-05
573.3071,-3.777358E-05
573.407,-3.775286E-05
573.507,-3.768788E-05
573.607,-3.774721E-05
573.707,-3.772178E-05
573.8069,-3.770766E-05
573.9069,-3.771048E-05
574.0069,-3.770483E-05
574.1069,-3.769447E-05
574.2068,-3.769541E-05
574.3068,-3.770107E-05
574.4068,-3.768505E-05
574.5068,-3.770671E-05
574.6068,-3.771613E-05
574.7067,-3.768976E-05
574.8067,-3.769541E-05
574.9067,-3.770389E-05
575.0067,-3.770766E-05
575.1066,-3.771801E-05
575.2066,-3.769824E-05
575.3066,-3.767093E-05
575.4066,-3.771142E-05
575.5065,-3.770483E-05
575.6065,-3.76907E-05
575.7065,-3.768976E-05
575.8065,-3.771048E-05
575.9064,-3.768976E-05
576.0064,-3.770389E-05
576.1064,-3.768882E-05
576.2064,-3.768034E-05
576.3063,-3.771801E-05
576.4063,-3.768129E-05
576.5063,-3.765869E-05
576.6063,-3.769918E-05
576.7062,-3.770389E-05
576.8062,-3.765586E-05
576.9062,-3.768694E-05
577.0062,-3.768317E-05
577.1061,-3.767281E-05
577.2061,-3.768411E-05
577.3061,-3.768129E-05
577.4061,-3.762384E-05
577.506,-3.768694E-05
577.606,-3.768411E-05
577.706,-3.766622E-05
577.806,-3.766528E-05
577.9059,-3.766245E-05
578.0059,-3.764738E-05
578.1059,-3.766151E-05
578.2059,-3.765491E-05
578.3058,-3.763138E-05
578.4058,-3.767281E-05
578.5058,-3.76907E-05
578.6058,-3.766528E-05
578.7057,-3.767187E-05
578.8057,-3.766151E-05
578.9057,-3.765303E-05
579.0057,-3.766999E-05
579.1057,-3.766999E-05
579.2056,-3.76116E-05
579.3056,-3.766528E-05
579.4056,-3.766434E-05
579.5056,-3.759841E-05
579.6055,-3.766339E-05
579.7055,-3.766434E-05
579.8055,-3.764644E-05
579.9055,-3.762478E-05
580.0054,-3.766151E-05
580.1054,-3.765491E-05
580.2054,-3.766151E-05
580.3054,-3.764079E-05
580.4053,-3.760595E-05
580.5053,-3.761254E-05
580.6053,-3.76342E-05
580.7053,-3.761065E-05
580.8052,-3.763608E-05
580.9052,-3.760877E-05
581.0052,-3.758994E-05
581.1052,-3.76116E-05
581.2051,-3.762855E-05
581.3051,-3.759559E-05
581.4051,-3.762384E-05
581.5051,-3.760972E-05
581.605,-3.758334E-05
581.705,-3.76116E-05
581.805,-3.764456E-05
581.905,-3.761537E-05
582.0049,-3.759653E-05
582.1049,-3.759935E-05
582.2049,-3.758617E-05
582.3049,-3.760877E-05
582.4048,-3.761065E-05
582.5048,-3.758052E-05
582.6048,-3.759182E-05
582.7048,-3.758994E-05
582.8047,-3.757958E-05
582.9047,-3.757487E-05
583.0047,-3.757864E-05
583.1047,-3.757205E-05
583.2047,-3.760407E-05
583.3046,-3.759653E-05
583.4046,-3.756451E-05
583.5046,-3.756357E-05
583.6046,-3.758994E-05
583.7045,-3.756546E-05
583.8045,-3.760689E-05
583.9045,-3.758334E-05
584.0045,-3.756263E-05
584.1044,-3.757487E-05
584.2044,-3.758334E-05
584.3044,-3.756263E-05
584.4044,-3.757487E-05
584.5043,-3.757581E-05
584.6043,-3.755603E-05
584.7043,-3.756828E-05
584.8043,-3.758146E-05
584.9042,-3.756263E-05
585.0042,-3.757864E-05
585.1042,-3.756075E-05
585.2042,-3.756357E-05
585.3041,-3.756451E-05
585.4041,-3.755321E-05
585.5041,-3.75438E-05
585.6041,-3.755792E-05
585.704,-3.757016E-05
585.804,-3.755981E-05
585.904,-3.754474E-05
586.004,-3.75485E-05
586.1039,-3.753249E-05
586.2039,-3.755133E-05
586.3039,-3.755792E-05
586.4039,-3.755133E-05
586.5038,-3.754191E-05
586.6038,-3.752025E-05
586.7038,-3.754097E-05
586.8038,-3.755698E-05
586.9037,-3.753626E-05
587.0037,-3.751649E-05
587.1037,-3.75438E-05
587.2037,-3.754285E-05
587.3036,-3.752402E-05
587.4036,-3.753249E-05
587.5036,-3.754944E-05
587.6036,-3.753626E-05
587.7036,-3.752402E-05
587.8035,-3.750706E-05
587.9035,-3.752119E-05
588.0035,-3.754474E-05
588.1035,-3.752496E-05
588.2034,-3.749482E-05
588.3034,-3.755415E-05
588.4034,-3.752684E-05
588.5034,-3.750612E-05
588.6033,-3.752025E-05
588.7033,-3.754003E-05
588.8033,-3.751649E-05
588.9033,-3.752214E-05
589.0032,-3.750989E-05
589.1032,-3.749106E-05
589.2032,-3.752402E-05
589.3032,-3.750518E-05
589.4031,-3.749765E-05
589.5031,-3.755886E-05
589.6031,-3.75711E-05
589.7031,-3.75033E-05
589.803,-3.749953E-05
589.903,-3.749482E-05
590.003,-3.748446E-05
590.103,-3.75146E-05
590.2029,-3.750047E-05
590.3029,-3.746092E-05
590.4029,-3.7492E-05
590.5029,-3.750047E-05
590.6028,-3.747693E-05
590.7028,-3.748635E-05
590.8028,-3.7492E-05
590.9028,-3.749482E-05
591.0027,-3.751649E-05
591.1027,-3.750612E-05
591.2027,-3.746751E-05
591.3027,-3.747411E-05
591.4026,-3.749482E-05
591.5026,-3.746751E-05
591.6026,-3.748258E-05
591.7026,-3.747599E-05
591.8026,-3.743926E-05
591.9025,-3.74807E-05
592.0025,-3.748446E-05
592.1025,-3.744397E-05
592.2025,-3.74581E-05
592.3024,-3.747034E-05
592.4024,-3.746751E-05
592.5024,-3.746375E-05
592.6024,-3.747034E-05
592.7023,-3.745904E-05
592.8023,-3.747787E-05
592.9023,-3.747693E-05
593.0023,-3.745998E-05
593.1022,-3.745433E-05
593.2022,-3.745245E-05
593.3022,-3.744114E-05
593.4022,-3.746751E-05
593.5021,-3.744962E-05
593.6021,-3.741572E-05
593.7021,-3.741949E-05
593.8021,-3.744303E-05
593.902,-3.743832E-05
594.002,-3.744114E-05
594.102,-3.742796E-05
594.202,-3.739971E-05
594.3019,-3.743361E-05
594.4019,-3.744209E-05
594.5019,-3.739029E-05
594.6019,-3.743644E-05
594.7018,-3.744774E-05
594.8018,-3.742984E-05
594.9018,-3.740253E-05
595.0018,-3.743361E-05
595.1017,-3.743173E-05
595.2017,-3.743267E-05
595.3017,-3.742796E-05
595.4017,-3.742514E-05
595.5016,-3.740065E-05
595.6016,-3.741854E-05
595.7016,-3.739876E-05
595.8016,-3.741666E-05
595.9016,-3.742419E-05
596.0015,-3.739029E-05
596.1015,-3.741572E-05
596.2015,-3.741007E-05
596.3015,-3.7395E-05
596.4014,-3.739876E-05
596.5014,-3.739123E-05
596.6014,-3.739783E-05
596.7014,-3.740348E-05
596.8013,-3.738276E-05
596.9013,-3.738558E-05
597.0013,-3.737805E-05
597.1013,-3.739123E-05
597.2012,-3.737805E-05
597.3012,-3.739218E-05
597.4012,-3.737146E-05
597.5012,-3.736298E-05
597.6011,-3.737616E-05
597.7011,-3.737428E-05
597.8011,-3.736957E-05
597.9011,-3.735639E-05
598.001,-3.736675E-05
598.101,-3.738181E-05
598.201,-3.73206E-05
598.301,-3.734226E-05
598.4009,-3.734603E-05
598.5009,-3.732343E-05
598.6009,-3.735262E-05
598.7009,-3.735827E-05
598.8008,-3.73545E-05
598.9008,-3.737051E-05
599.0008,-3.733285E-05
599.1008,-3.73545E-05
599.2007,-3.735545E-05
599.3007,-3.734509E-05
599.4007,-3.73206E-05
599.5007,-3.732531E-05
599.6006,-3.733662E-05
599.7006,-3.734415E-05
599.8006,-3.734038E-05
599.9006,-3.734038E-05
600.0005,-3.731966E-05
