EXPID. 1047
[电化学]: i-t : @ 0(V) X 600(sec)
起始电位 (V),0
静置时间 (秒),0
运行时间 (秒),600
记录间隔,0.1
电解液 信息:
HNO3,0.4
0.1,-0.00140522
0.2,-0.003283334
0.3,-0.003288733
0.4,-0.00297843
0.5,-0.002672722
0.6,-0.00241928
0.7,-0.002204785
0.8000001,-0.002026516
0.9000001,-0.001875738
1,-0.001747429
1.1,-0.001636694
1.2,-0.00154249
1.3,-0.001458535
1.4,-0.00138643
1.5,-0.001322488
1.6,-0.00126387
1.7,-0.001213267
1.8,-0.001168348
1.9,-0.001125426
2,-0.001087085
2.1,-0.001053206
2.2,-0.001020818
2.3,-0.0009913547
2.4,-0.0009647847
2.5,-0.0009393072
2.6,-0.0009161076
2.7,-0.000894558
2.799999,-0.0008737617
2.899999,-0.0008549572
2.999999,-0.0008370446
3.099999,-0.0008200981
3.199999,-0.0008044502
3.299999,-0.0007894089
3.399999,-0.0007746039
3.499999,-0.0007618134
3.599999,-0.0007489069
3.699999,-0.0007364968
3.799999,-0.0007253778
3.899998,-0.0007139669
3.999998,-0.0007034212
4.099998,-0.00069352
4.199998,-0.0006835367
4.299998,-0.00067461
4.399998,-0.0006656541
4.499998,-0.0006570232
4.599998,-0.0006489055
4.699998,-0.000641106
4.799998,-0.0006331691
4.899998,-0.0006259733
4.999998,-0.0006187992
5.099998,-0.000611887
5.199997,-0.0006055679
5.299997,-0.0005993807
5.399997,-0.0005932059
5.499997,-0.0005872776
5.599997,-0.0005816969
5.699997,-0.000576038
5.799997,-0.0005705016
5.899997,-0.0005649341
5.999997,-0.0005600183
6.099997,-0.000554914
6.199996,-0.0005500274
6.299996,-0.000545282
6.399996,-0.0005408305
6.499996,-0.0005362245
6.599996,-0.0005320639
6.699996,-0.0005277621
6.799996,-0.0005235667
6.899996,-0.0005196594
6.999996,-0.00051574
7.099996,-0.00051186
7.199996,-0.0005082635
7.299995,-0.000504475
7.399995,-0.0005009595
7.499995,-0.0004976078
7.599995,-0.0004940773
7.699995,-0.0004907963
7.799995,-0.0004876349
7.899995,-0.0004843285
7.999995,-0.0004810277
8.099995,-0.0004782468
8.199995,-0.0004749601
8.299995,-0.0004720681
8.399996,-0.0004694953
8.499996,-0.0004664365
8.599997,-0.0004636433
8.699997,-0.0004611195
8.799997,-0.0004582745
8.899998,-0.0004557695
8.999998,-0.0004532325
9.099998,-0.0004505712
9.199999,-0.0004480907
9.299999,-0.0004458503
9.4,-0.0004431691
9.5,-0.0004411011
9.6,-0.0004388589
9.700001,-0.0004365196
9.800001,-0.0004344026
9.900002,-0.0004322178
10,-0.0004299039
10.1,-0.0004279376
10.2,-0.0004258592
10.3,-0.0004236565
10.4,-0.0004218003
10.5,-0.0004198311
10.6,-0.0004177292
10.7,-0.0004159767
10.8,-0.0004140169
10.90001,-0.0004119479
11.00001,-0.0004102067
11.10001,-0.0004083053
11.20001,-0.0004064369
11.30001,-0.0004048379
11.40001,-0.0004029676
11.50001,-0.0004012047
11.60001,-0.0003995472
11.70001,-0.0003978954
11.80001,-0.0003961768
11.90001,-0.0003945278
12.00001,-0.0003929833
12.10001,-0.0003913843
12.20001,-0.0003898417
12.30001,-0.0003881777
12.40001,-0.0003866511
12.50001,-0.0003852263
12.60001,-0.0003837628
12.70001,-0.0003823145
12.80001,-0.0003809753
12.90001,-0.0003794252
13.00001,-0.0003779674
13.10001,-0.0003766189
13.20001,-0.0003752355
13.30001,-0.0003738756
13.40001,-0.0003725271
13.50002,-0.0003711578
13.60002,-0.0003698902
13.70002,-0.0003686697
13.80002,-0.0003673673
13.90002,-0.000365999
14.00002,-0.0003647992
14.10002,-0.0003635816
14.20002,-0.0003624496
14.30002,-0.0003611236
14.40002,-0.0003599775
14.50002,-0.0003587005
14.60002,-0.0003575102
14.70002,-0.0003562747
14.80002,-0.000355234
14.90002,-0.0003539523
15.00002,-0.0003530841
15.10002,-0.0003519851
15.20002,-0.0003505744
15.30002,-0.0003497051
15.40002,-0.0003487022
15.50002,-0.0003474337
15.60002,-0.0003468008
15.70002,-0.0003457988
15.80002,-0.0003446895
15.90002,-0.0003438344
16.00002,-0.0003427326
16.10003,-0.0003414942
16.20003,-0.0003405251
16.30003,-0.000339543
16.40003,-0.0003382932
16.50003,-0.000337392
16.60003,-0.0003363514
16.70003,-0.0003354191
16.80003,-0.0003346205
16.90003,-0.0003336561
17.00003,-0.0003325628
17.10003,-0.0003316211
17.20003,-0.0003307547
17.30003,-0.0003297065
17.40003,-0.0003288109
17.50003,-0.0003279417
17.60003,-0.0003269925
17.70003,-0.0003264312
17.80003,-0.0003254028
17.90003,-0.0003242859
18.00003,-0.000323492
18.10003,-0.000322636
18.20003,-0.0003218346
18.30003,-0.000321003
18.40003,-0.0003201649
18.50003,-0.0003194539
18.60003,-0.0003185903
18.70004,-0.0003178238
18.80004,-0.0003169894
18.90004,-0.0003161221
19.00004,-0.0003154403
19.10004,-0.0003146247
19.20004,-0.0003137018
19.30004,-0.0003130501
19.40004,-0.0003123108
19.50004,-0.0003115415
19.60004,-0.000310725
19.70004,-0.0003100611
19.80004,-0.0003091175
19.90004,-0.0003084319
20.00004,-0.0003076569
20.10004,-0.000306813
20.20004,-0.0003062857
20.30004,-0.0003055097
20.40004,-0.0003046866
20.50004,-0.0003040754
20.60004,-0.0003034501
20.70004,-0.0003027033
20.80004,-0.0003019631
20.90004,-0.0003012898
21.00004,-0.0003005383
21.10004,-0.0002999695
21.20004,-0.0002992858
21.30005,-0.0002985531
21.40005,-0.0002978807
21.50005,-0.0002972102
21.60005,-0.0002966697
21.70005,-0.0002961244
21.80005,-0.0002953597
21.90005,-0.0002946459
22.00005,-0.0002939716
22.10005,-0.0002933632
22.20005,-0.0002927332
22.30005,-0.0002920448
22.40005,-0.0002914157
22.50005,-0.00029091
22.60005,-0.0002902715
22.70005,-0.0002896726
22.80005,-0.000289068
22.90005,-0.0002884276
23.00005,-0.0002877788
23.10005,-0.0002872843
23.20005,-0.0002866327
23.30005,-0.0002859386
23.40005,-0.0002854028
23.50005,-0.0002848622
23.60005,-0.0002842802
23.70005,-0.0002838197
23.80005,-0.0002832566
23.90005,-0.0002826284
24.00006,-0.0002821322
24.10006,-0.0002815078
24.20006,-0.0002809314
24.30006,-0.000280583
24.40006,-0.0002798739
24.50006,-0.0002793983
24.60006,-0.0002787834
24.70006,-0.0002780639
24.80006,-0.0002775657
24.90006,-0.0002770929
25.00006,-0.0002764639
25.10006,-0.0002759845
25.20006,-0.0002754948
25.30006,-0.0002749421
25.40006,-0.0002744062
25.50006,-0.000273989
25.60006,-0.0002734296
25.70006,-0.000272906
25.80006,-0.0002724427
25.90006,-0.000271968
26.00006,-0.0002715188
26.10006,-0.0002709462
26.20006,-0.0002703859
26.30006,-0.0002699226
26.40006,-0.0002694027
26.50006,-0.000268866
26.60007,-0.0002684139
26.70007,-0.0002679346
26.80007,-0.0002673705
26.90007,-0.0002669637
27.00007,-0.0002664957
27.10007,-0.0002659598
27.20007,-0.0002655473
27.30007,-0.0002651066
27.40007,-0.0002646178
27.50007,-0.0002643635
27.60007,-0.0002637693
27.70007,-0.000263224
27.80007,-0.000262772
27.90007,-0.000262368
28.00007,-0.0002618972
28.10007,-0.0002614922
28.20007,-0.0002609573
28.30007,-0.0002605627
28.40007,-0.0002600231
28.50007,-0.0002596116
28.60007,-0.0002592754
28.70007,-0.0002587932
28.80007,-0.0002582705
28.90007,-0.0002578053
29.00007,-0.0002573787
29.10007,-0.0002569277
29.20008,-0.0002565962
29.30008,-0.0002560848
29.40008,-0.0002556601
29.50008,-0.0002552853
29.60008,-0.0002549123
29.70008,-0.0002544443
29.80008,-0.0002541326
29.90008,-0.0002536043
30.00008,-0.0002531485
30.10008,-0.000252881
30.20008,-0.000252396
30.30008,-0.0002521795
30.40008,-0.0002517038
30.50008,-0.0002512104
30.60008,-0.0002507574
30.70008,-0.0002503506
30.80008,-0.0002499673
30.90008,-0.0002496603
31.00008,-0.0002491527
31.10008,-0.0002487214
31.20008,-0.000248372
31.30008,-0.000248049
31.40008,-0.0002476591
31.50008,-0.0002472749
31.60008,-0.0002468031
31.70008,-0.0002464048
31.80009,-0.0002460299
31.90009,-0.0002456429
32.00008,-0.0002453688
32.10008,-0.0002449761
32.20008,-0.0002446155
32.30008,-0.0002442614
32.40008,-0.0002438677
32.50008,-0.0002434929
32.60007,-0.0002431181
32.70007,-0.0002427066
32.80007,-0.0002423864
32.90007,-0.0002419701
33.00007,-0.0002416424
33.10007,-0.0002412158
33.20007,-0.000240905
33.30006,-0.0002404116
33.40006,-0.0002401375
33.50006,-0.0002399124
33.60006,-0.0002394067
33.70006,-0.0002390376
33.80006,-0.0002386383
33.90005,-0.0002382126
34.00005,-0.0002379593
34.10005,-0.0002377135
34.20005,-0.0002372973
34.30005,-0.0002369366
34.40005,-0.0002366804
34.50005,-0.0002362218
34.60004,-0.0002360335
34.70004,-0.0002357321
34.80004,-0.0002352273
34.90004,-0.0002349156
35.00004,-0.0002345672
35.10004,-0.0002341349
35.20004,-0.0002338713
35.30003,-0.0002335614
35.40003,-0.0002331819
35.50003,-0.0002329464
35.60003,-0.0002325707
35.70003,-0.0002322251
35.80003,-0.0002319642
35.90002,-0.0002316733
36.00002,-0.0002313596
36.10002,-0.000231111
36.20002,-0.0002307051
36.30002,-0.000230481
36.40002,-0.0002301222
36.50002,-0.0002298199
36.60001,-0.0002294752
36.70001,-0.0002292502
36.80001,-0.0002288405
36.90001,-0.000228622
37.00001,-0.0002283254
37.10001,-0.0002279383
37.2,-0.0002276454
37.3,-0.0002272339
37.4,-0.0002268798
37.5,-0.0002265464
37.6,-0.0002261914
37.7,-0.0002259607
37.8,-0.0002256763
37.89999,-0.0002253316
37.99999,-0.0002250802
38.09999,-0.0002249097
38.19999,-0.00022442
38.29999,-0.000224291
38.39999,-0.0002241168
38.49998,-0.0002235678
38.59998,-0.0002233964
38.69998,-0.0002231044
38.79998,-0.0002226976
38.89998,-0.0002224876
38.99998,-0.0002221778
39.09998,-0.0002218058
39.19997,-0.000221624
39.29997,-0.0002214291
39.39997,-0.000221026
39.49997,-0.0002206729
39.59997,-0.0002203998
39.69997,-0.0002201069
39.79996,-0.000219896
39.89996,-0.0002195654
39.99996,-0.0002191849
40.09996,-0.0002189966
40.19996,-0.0002186086
40.29996,-0.0002183223
40.39996,-0.0002180746
40.49995,-0.0002177808
40.59995,-0.0002175049
40.69995,-0.0002173203
40.79995,-0.0002169813
40.89995,-0.0002166809
40.99995,-0.0002163974
41.09995,-0.0002161102
41.19994,-0.0002158324
41.29994,-0.0002155828
41.39994,-0.0002152768
41.49994,-0.0002151129
41.59994,-0.0002148115
41.69994,-0.0002145243
41.79993,-0.0002143426
41.89993,-0.0002140158
41.99993,-0.0002137464
42.09993,-0.000213673
42.19993,-0.0002132172
42.29993,-0.0002130496
42.39993,-0.0002129817
42.49992,-0.0002126606
42.59992,-0.0002122651
42.69992,-0.0002120231
42.79992,-0.0002116511
42.89992,-0.0002113808
42.99992,-0.0002111981
43.09991,-0.0002108318
43.19991,-0.0002105606
43.29991,-0.0002103477
43.39991,-0.0002100454
43.49991,-0.0002098204
43.59991,-0.000209487
43.69991,-0.000209293
43.7999,-0.0002095077
43.8999,-0.0002091254
43.9999,-0.0002089248
44.0999,-0.0002085858
44.1999,-0.0002083381
44.2999,-0.000207968
44.39989,-0.0002077542
44.49989,-0.0002074425
44.59989,-0.0002070874
44.69989,-0.000206917
44.79989,-0.0002066938
44.89989,-0.0002063623
44.99989,-0.0002061787
45.09988,-0.0002059254
45.19988,-0.0002056588
45.29988,-0.0002054338
45.39988,-0.0002052492
45.49988,-0.0002049676
45.59988,-0.0002048414
45.69987,-0.0002045561
45.79987,-0.000204251
45.89987,-0.0002040777
45.99987,-0.0002037792
46.09987,-0.0002035098
46.19987,-0.0002033601
46.29987,-0.0002031247
46.39986,-0.0002028638
46.49986,-0.0002026566
46.59986,-0.0002023242
46.69986,-0.0002021123
46.79986,-0.000202068
46.89986,-0.0002016311
46.99986,-0.0002013975
47.09985,-0.0002012393
47.19985,-0.0002009295
47.29985,-0.0002007336
47.39985,-0.0002004953
47.49985,-0.0002002872
47.59985,-0.0002000556
47.69984,-0.0001998088
47.79984,-0.0001996252
47.89984,-0.0001993455
47.99984,-0.00019903
48.09984,-0.0001988737
48.19984,-0.0001987418
48.29984,-0.000198496
48.39983,-0.0001982738
48.49983,-0.0001981608
48.59983,-0.0001977671
48.69983,-0.0001975675
48.79983,-0.0001974762
48.89983,-0.0001971616
48.99982,-0.0001969026
49.09982,-0.0001967689
49.19982,-0.0001963894
49.29982,-0.0001962265
49.39982,-0.0001961671
49.49982,-0.000195847
49.59982,-0.0001955983
49.69981,-0.0001954825
49.79981,-0.0001951953
49.89981,-0.0001949824
49.99981,-0.0001947969
50.09981,-0.000194473
50.19981,-0.000194294
50.2998,-0.000194069
50.3998,-0.0001938542
50.4998,-0.0001936471
50.5998,-0.0001934681
50.6998,-0.0001932271
50.7998,-0.0001930236
50.8998,-0.0001927976
50.99979,-0.0001925905
51.09979,-0.0001924445
51.19979,-0.0001921817
51.29979,-0.0001919878
51.39979,-0.0001918521
51.49979,-0.0001915866
51.59978,-0.0001914133
51.69978,-0.0001913031
51.79978,-0.0001910375
51.89978,-0.0001908482
51.99978,-0.0001906608
52.09978,-0.0001904433
52.19978,-0.000190255
52.29977,-0.0001899997
52.39977,-0.0001897869
52.49977,-0.0001897059
52.59977,-0.0001895534
52.69977,-0.0001893358
52.79977,-0.0001890571
52.89977,-0.0001887124
52.99976,-0.0001885806
53.09976,-0.0001884148
53.19976,-0.0001881756
53.29976,-0.0001879176
53.39976,-0.000187846
53.49976,-0.0001876238
53.59975,-0.0001874505
53.69975,-0.0001873412
53.79975,-0.0001871049
53.89975,-0.0001869071
53.99975,-0.00018678
54.09975,-0.0001865464
54.19975,-0.000186342
54.29974,-0.0001862799
54.39974,-0.0001860624
54.49974,-0.0001859804
54.59974,-0.0001857742
54.69974,-0.000185503
54.79974,-0.0001852638
54.89973,-0.0001851169
54.99973,-0.0001849087
55.09973,-0.0001847072
55.19973,-0.0001844963
55.29973,-0.0001842919
55.39973,-0.0001840951
55.49973,-0.0001839774
55.59972,-0.0001837344
55.69972,-0.0001836016
55.79972,-0.0001834538
55.89972,-0.0001831986
55.99972,-0.0001830027
56.09972,-0.0001829245
56.19971,-0.0001826571
56.29971,-0.0001825196
56.39971,-0.000182334
56.49971,-0.0001821363
56.59971,-0.0001819423
56.69971,-0.000181833
56.79971,-0.0001816334
56.8997,-0.000181462
56.9997,-0.0001812511
57.0997,-0.0001809958
57.1997,-0.0001808715
57.2997,-0.000180702
57.3997,-0.0001805448
57.49969,-0.000180412
57.59969,-0.0001803527
57.69969,-0.0001799722
57.79969,-0.0001799797
57.89969,-0.0001797518
57.99969,-0.0001796237
58.09969,-0.0001794533
58.19968,-0.0001793412
58.29968,-0.0001790484
58.39968,-0.0001789438
58.49968,-0.0001787046
58.59968,-0.0001784786
58.69968,-0.0001783646
58.79967,-0.0001782742
58.89967,-0.0001780106
58.99967,-0.0001778561
59.09967,-0.0001775623
59.19967,-0.0001774418
59.29967,-0.000177486
59.39967,-0.0001773005
59.49966,-0.0001772073
59.59966,-0.0001770321
59.69966,-0.0001767854
59.79966,-0.000176645
59.89966,-0.0001764708
59.99966,-0.0001763154
60.09966,-0.0001760885
60.19965,-0.0001759482
60.29965,-0.0001757674
60.39965,-0.0001755762
60.49965,-0.0001754359
60.59965,-0.000175223
60.69965,-0.0001750912
60.79964,-0.0001749132
60.89964,-0.000174852
60.99964,-0.0001745846
61.09964,-0.0001744103
61.19964,-0.0001742719
61.29964,-0.0001741382
61.39964,-0.0001739244
61.49963,-0.000173817
61.59963,-0.0001736767
61.69963,-0.0001734507
61.79963,-0.0001733471
61.89963,-0.0001732275
61.99963,-0.0001729318
62.09962,-0.0001728376
62.19962,-0.0001726879
62.29962,-0.0001724713
62.39962,-0.0001723733
62.49962,-0.0001721294
62.59962,-0.0001720089
62.69962,-0.0001721106
62.79961,-0.0001717254
62.89961,-0.0001715456
62.99961,-0.0001713855
63.09961,-0.0001712301
63.19961,-0.0001710531
63.29961,-0.0001709344
63.3996,-0.0001707055
63.4996,-0.000170601
63.5996,-0.0001704494
63.6996,-0.000170278
63.7996,-0.0001701151
63.8996,-0.0001699427
63.9996,-0.0001698081
64.09959,-0.0001697874
64.19959,-0.000169567
64.29959,-0.0001694135
64.39959,-0.000169308
64.49959,-0.0001691489
64.59959,-0.0001690311
64.69958,-0.0001689549
64.79958,-0.000169083
64.89958,-0.0001688739
64.99958,-0.0001687223
65.09958,-0.000168451
65.19958,-0.0001682457
65.29958,-0.0001680179
65.39957,-0.0001679237
65.49957,-0.0001676675
65.59957,-0.0001675263
65.69957,-0.0001674086
65.79957,-0.0001675103
65.89957,-0.0001671957
65.99957,-0.0001668897
66.09956,-0.0001667945
66.19956,-0.000166707
66.29956,-0.0001663905
66.39956,-0.0001662436
66.49956,-0.0001661278
66.59956,-0.0001659988
66.69955,-0.0001658264
66.79955,-0.0001658547
66.89955,-0.0001655986
66.99955,-0.0001653688
67.09955,-0.0001653763
67.19955,-0.0001652623
67.29955,-0.0001650561
67.39954,-0.0001649563
67.49954,-0.0001647726
67.59954,-0.0001646286
67.69954,-0.0001645777
67.79954,-0.0001643969
67.89954,-0.0001644977
67.99953,-0.0001643969
68.09953,-0.0001640833
68.19953,-0.0001638733
68.29953,-0.0001637678
68.39953,-0.0001638158
68.49953,-0.0001638253
68.59953,-0.0001635277
68.69952,-0.000163344
68.79952,-0.0001632065
68.89952,-0.0001629626
68.99952,-0.000162795
69.09952,-0.0001626594
69.19952,-0.0001624494
69.29951,-0.0001623345
69.39951,-0.000162198
69.49951,-0.0001619672
69.59951,-0.0001618909
69.69951,-0.0001617478
69.79951,-0.0001616197
69.89951,-0.0001615256
69.9995,-0.0001614154
70.0995,-0.0001612185
70.1995,-0.0001610924
70.2995,-0.0001609982
70.3995,-0.0001609115
70.4995,-0.0001608098
70.59949,-0.0001606309
70.69949,-0.0001604426
70.79949,-0.0001603249
70.89949,-0.0001601808
70.99949,-0.0001600442
71.09949,-0.0001600282
71.19949,-0.0001598436
71.29948,-0.0001596073
71.39948,-0.0001595922
71.49948,-0.0001593172
71.59948,-0.0001592051
71.69948,-0.0001591307
71.79948,-0.0001589537
71.89948,-0.0001587861
71.99947,-0.0001586778
72.09947,-0.0001585299
72.19947,-0.0001584395
72.29947,-0.0001584451
72.39947,-0.0001582295
72.49947,-0.0001580138
72.59946,-0.0001579074
72.69946,-0.0001576936
72.79946,-0.0001576117
72.89946,-0.0001574752
72.99946,-0.0001576353
73.09946,-0.0001574149
73.19946,-0.0001572039
73.29945,-0.0001569798
73.39945,-0.0001568404
73.49945,-0.0001566436
73.59945,-0.0001564656
73.69945,-0.0001564138
73.79945,-0.0001562914
73.89944,-0.0001561115
73.99944,-0.0001560532
74.09944,-0.0001559175
74.19944,-0.0001557942
74.29944,-0.0001558318
74.39944,-0.0001555371
74.49944,-0.000155426
74.59943,-0.0001552527
74.69943,-0.0001552244
74.79943,-0.0001550549
74.89943,-0.000154957
74.99943,-0.0001547507
75.09943,-0.0001546283
75.19942,-0.0001544918
75.29942,-0.0001543599
75.39942,-0.0001542573
75.49942,-0.0001541876
75.59942,-0.0001540303
75.69942,-0.0001538467
75.79942,-0.0001537205
75.89941,-0.0001536018
75.99941,-0.0001535642
76.09941,-0.000153421
76.19941,-0.0001532722
76.29941,-0.0001531856
76.39941,-0.0001530095
76.4994,-0.000152937
76.5994,-0.0001528531
76.6994,-0.0001526893
76.7994,-0.0001526055
76.8994,-0.0001525047
76.9994,-0.000152274
77.0994,-0.0001522956
77.19939,-0.0001522015
77.29939,-0.0001520094
77.39939,-0.0001520593
77.49939,-0.0001519745
77.59939,-0.0001516562
77.69939,-0.0001516195
77.79939,-0.0001514613
77.89938,-0.0001512805
77.99938,-0.000151223
78.09938,-0.0001511128
78.19938,-0.0001508944
78.29938,-0.0001508671
78.39938,-0.0001507531
78.49937,-0.0001505921
78.59937,-0.0001504875
78.69937,-0.0001503623
78.79937,-0.0001501541
78.89937,-0.0001501165
78.99937,-0.0001500204
79.09937,-0.0001498537
79.19936,-0.0001497793
79.29936,-0.0001496767
79.39936,-0.0001495769
79.49936,-0.000149527
79.59936,-0.0001496098
79.69936,-0.0001493104
79.79935,-0.0001491314
79.89935,-0.0001490768
79.99935,-0.0001489167
80.09935,-0.0001488263
80.19935,-0.0001487124
80.29935,-0.0001485805
80.39935,-0.000148444
80.49934,-0.000148347
80.59934,-0.0001482208
80.69934,-0.0001481143
80.79934,-0.0001479844
80.89934,-0.0001479891
80.99934,-0.0001479034
81.09933,-0.0001477245
81.19933,-0.0001475747
81.29933,-0.000147426
81.39933,-0.0001473026
81.49933,-0.0001472527
81.59933,-0.0001471105
81.69933,-0.0001469834
81.79932,-0.0001468901
81.89932,-0.0001467234
81.99932,-0.0001466415
82.09932,-0.0001465539
82.19932,-0.0001464353
82.29932,-0.0001465031
82.39931,-0.0001464786
82.49931,-0.0001463081
82.59931,-0.0001461377
82.69931,-0.0001460557
82.79931,-0.0001458777
82.89931,-0.0001458514
82.99931,-0.000145809
83.0993,-0.0001456903
83.1993,-0.0001454982
83.2993,-0.0001454973
83.3993,-0.0001453221
83.4993,-0.0001453136
83.5993,-0.0001451809
83.6993,-0.0001449963
83.79929,-0.0001448277
83.89929,-0.0001447166
83.99929,-0.000144645
84.09929,-0.0001445848
84.19929,-0.0001444764
84.29929,-0.0001443597
84.39928,-0.0001441723
84.49928,-0.0001441544
84.59928,-0.0001440037
84.69928,-0.000143853
84.79928,-0.0001437711
84.89928,-0.0001436336
84.99928,-0.000143546
85.09927,-0.0001434057
85.19927,-0.00014332
85.29927,-0.0001431806
85.39927,-0.0001430921
85.49927,-0.0001430563
85.59927,-0.0001428331
85.69926,-0.0001427022
85.79926,-0.0001427248
85.89926,-0.0001426561
85.99926,-0.000142528
86.09926,-0.0001423868
86.19926,-0.0001422332
86.29926,-0.0001421099
86.39925,-0.0001421023
86.49925,-0.0001419159
86.59925,-0.0001417822
86.69925,-0.0001417388
86.79925,-0.0001415938
86.89925,-0.0001415298
86.99924,-0.0001414441
87.09924,-0.0001412906
87.19924,-0.0001411625
87.29924,-0.0001411578
87.39924,-0.000141025
87.49924,-0.0001408866
87.59924,-0.0001408018
87.69923,-0.000140621
87.79923,-0.0001405918
87.89923,-0.0001404628
87.99923,-0.0001404336
88.09923,-0.0001402208
88.19923,-0.0001401643
88.29922,-0.0001400079
88.39922,-0.0001399778
88.49922,-0.0001398591
88.59922,-0.0001397395
88.69922,-0.0001396096
88.79922,-0.0001395634
88.89922,-0.0001394467
88.99921,-0.000139392
89.09921,-0.0001393308
89.19921,-0.0001392244
89.29921,-0.0001389909
89.39921,-0.0001388995
89.49921,-0.0001389664
89.59921,-0.0001389758
89.6992,-0.0001387272
89.7992,-0.0001386547
89.8992,-0.0001385172
89.9992,-0.000138407
90.0992,-0.0001383429
90.1992,-0.0001381781
90.29919,-0.0001380407
90.39919,-0.0001379597
90.49919,-0.0001378429
90.59919,-0.0001377704
90.69919,-0.0001376809
90.79919,-0.0001377101
90.89919,-0.0001376894
90.99918,-0.0001374483
91.09918,-0.0001373287
91.19918,-0.0001372713
91.29918,-0.0001371884
91.39918,-0.0001370594
91.49918,-0.0001370057
91.59917,-0.0001368889
91.69917,-0.0001367665
91.79917,-0.0001366629
91.89917,-0.0001366102
91.99917,-0.0001365075
92.09917,-0.0001364793
92.19917,-0.0001363747
92.29916,-0.0001361968
92.39916,-0.0001361421
92.49916,-0.0001360404
92.59916,-0.0001359594
92.69916,-0.0001358511
92.79916,-0.0001357419
92.89915,-0.0001356769
92.99915,-0.0001357061
93.09915,-0.0001354
93.19915,-0.0001353257
93.29915,-0.0001352663
93.39915,-0.0001351156
93.49915,-0.0001350883
93.59914,-0.0001350431
93.69914,-0.0001348152
93.79914,-0.0001348199
93.89914,-0.0001347794
93.99914,-0.0001345835
94.09914,-0.0001345986
94.19913,-0.0001346062
94.29913,-0.0001345431
94.39913,-0.0001344659
94.49913,-0.0001342389
94.59913,-0.0001340515
94.69913,-0.0001339733
94.79913,-0.0001339244
94.89912,-0.0001338867
94.99912,-0.000133672
95.09912,-0.000133655
95.19912,-0.0001335128
95.29912,-0.0001333847
95.39912,-0.0001334224
95.49911,-0.000133251
95.59911,-0.00013309
95.69911,-0.0001330947
95.79911,-0.0001329562
95.89911,-0.0001328847
95.99911,-0.0001328178
96.09911,-0.0001327067
96.1991,-0.0001326276
96.2991,-0.0001326153
96.3991,-0.0001324505
96.4991,-0.0001324393
96.5991,-0.0001323997
96.6991,-0.0001322368
96.7991,-0.0001321238
96.89909,-0.0001320475
96.99909,-0.0001318676
97.09909,-0.0001318488
97.19909,-0.0001317565
97.29909,-0.0001316171
97.39909,-0.0001315559
97.49908,-0.0001314457
97.59908,-0.0001313694
97.69908,-0.000131328
97.79908,-0.0001312103
97.89908,-0.0001311406
97.99908,-0.0001311142
98.09908,-0.0001309993
98.19907,-0.0001311406
98.29907,-0.0001310379
98.39907,-0.0001307931
98.49907,-0.0001307338
98.59907,-0.0001306283
98.69907,-0.0001304512
98.79906,-0.0001304155
98.89906,-0.000130374
98.99906,-0.0001302714
99.09906,-0.0001301555
99.19906,-0.0001301235
99.29906,-0.000129954
99.39906,-0.0001299069
99.49905,-0.0001299484
99.59905,-0.0001299098
99.69905,-0.0001297167
99.79905,-0.0001296291
99.89905,-0.0001294775
99.99905,-0.000129405
100.099,-0.0001293249
100.199,-0.0001292637
100.299,-0.0001292392
100.399,-0.0001291629
100.499,-0.0001290198
100.599,-0.0001288682
100.699,-0.0001288277
100.799,-0.0001287448
100.899,-0.0001288239
100.999,-0.0001287062
101.099,-0.0001284972
101.199,-0.0001283606
101.299,-0.0001282947
101.399,-0.0001282476
101.499,-0.0001281544
101.599,-0.0001280432
101.699,-0.0001279585
101.799,-0.0001279067
101.899,-0.0001277683
101.999,-0.0001277579
102.099,-0.0001277325
102.199,-0.0001275987
102.299,-0.0001275479
102.399,-0.0001274952
102.499,-0.0001273501
102.599,-0.000127304
102.699,-0.0001272475
102.799,-0.0001271373
102.899,-0.0001270827
102.999,-0.0001270026
103.099,-0.0001268397
103.199,-0.0001267992
103.299,-0.0001268124
103.399,-0.0001266843
103.499,-0.0001265506
103.599,-0.0001265619
103.699,-0.0001264188
103.799,-0.0001263312
103.899,-0.0001263302
103.999,-0.0001261748
104.099,-0.0001260769
104.199,-0.0001260477
104.299,-0.000125897
104.399,-0.0001258264
104.499,-0.000125897
104.599,-0.0001256974
104.699,-0.0001255759
104.799,-0.0001255646
104.899,-0.0001254469
104.999,-0.000125397
105.099,-0.0001253414
105.199,-0.0001252086
105.299,-0.0001251154
105.399,-0.0001251097
105.499,-0.0001249788
105.599,-0.0001248809
105.699,-0.0001248366
105.799,-0.0001247877
105.899,-0.0001246596
105.999,-0.0001246153
106.099,-0.0001245287
106.199,-0.0001244053
106.299,-0.0001243959
106.3989,-0.0001243507
106.4989,-0.0001243488
106.5989,-0.0001242386
106.6989,-0.0001240983
106.7989,-0.0001239768
106.8989,-0.000124006
106.9989,-0.0001238761
107.0989,-0.0001238394
107.1989,-0.0001236981
107.2989,-0.0001235926
107.3989,-0.0001235069
107.4989,-0.0001234043
107.5989,-0.0001233148
107.6989,-0.0001232461
107.7989,-0.0001231933
107.8989,-0.0001230916
107.9989,-0.0001230135
108.0989,-0.0001229758
108.1989,-0.0001229296
108.2989,-0.0001229042
108.3989,-0.0001227912
108.4989,-0.0001227074
108.5989,-0.0001226735
108.6989,-0.0001226744
108.7989,-0.0001224946
108.8989,-0.0001224286
108.9989,-0.0001223119
109.0989,-0.0001222318
109.1989,-0.0001221753
109.2989,-0.0001221122
109.3989,-0.0001220114
109.4989,-0.0001219531
109.5989,-0.0001218805
109.6989,-0.0001218721
109.7989,-0.0001217741
109.8989,-0.0001216206
109.9989,-0.0001216903
110.0989,-0.0001215961
110.1989,-0.0001214087
110.2989,-0.0001213786
110.3989,-0.0001213193
110.4989,-0.0001211677
110.5989,-0.0001211441
110.6989,-0.0001211554
110.7989,-0.0001209435
110.8989,-0.0001209247
110.9989,-0.0001208541
111.0989,-0.0001206977
111.1989,-0.000120725
111.2989,-0.0001206629
111.3989,-0.0001205697
111.4989,-0.0001204727
111.5989,-0.0001204501
111.6989,-0.000120354
111.7989,-0.0001202598
111.8989,-0.0001202476
111.9989,-0.0001201628
112.0989,-0.0001201035
112.1989,-0.0001200526
112.2989,-0.0001199321
112.3989,-0.0001198417
112.4989,-0.0001198247
112.5989,-0.0001197447
112.6989,-0.0001197682
112.7989,-0.0001196552
112.8988,-0.000119498
112.9988,-0.0001194914
113.0988,-0.000119417
113.1988,-0.0001192654
113.2988,-0.0001192324
113.3988,-0.0001191674
113.4988,-0.0001190412
113.5988,-0.0001190149
113.6988,-0.0001188971
113.7988,-0.000118851
113.8988,-0.0001188529
113.9988,-0.0001187079
114.0988,-0.0001187446
114.1988,-0.0001187248
114.2988,-0.0001185534
114.3988,-0.0001184809
114.4988,-0.0001184244
114.5988,-0.0001183368
114.6988,-0.0001184442
114.7988,-0.0001182285
114.8988,-0.000118221
114.9988,-0.0001183029
115.0988,-0.0001182473
115.1988,-0.000118076
115.2988,-0.0001180411
115.3988,-0.00011793
115.4988,-0.0001178245
115.5988,-0.0001178226
115.6988,-0.0001177256
115.7988,-0.0001176399
115.8988,-0.0001175646
115.9988,-0.0001175109
116.0988,-0.0001173791
116.1988,-0.0001173744
116.2988,-0.0001172632
116.3988,-0.0001171936
116.4988,-0.0001170966
116.5988,-0.0001171248
116.6988,-0.0001169835
116.7988,-0.0001169346
116.8988,-0.000116896
116.9988,-0.0001168263
117.0988,-0.0001168197
117.1988,-0.0001166916
117.2988,-0.0001166464
117.3988,-0.0001165739
117.4988,-0.0001164957
117.5988,-0.0001164006
117.6988,-0.0001163808
117.7988,-0.0001162377
117.8988,-0.0001161689
117.9988,-0.0001161963
118.0988,-0.0001161181
118.1988,-0.0001161576
118.2988,-0.0001161567
118.3988,-0.0001158911
118.4988,-0.000115845
118.5988,-0.0001157386
118.6988,-0.0001155973
118.7988,-0.0001156397
118.8988,-0.0001156001
118.9988,-0.0001155757
119.0988,-0.0001160004
119.1988,-0.0001155747
119.2988,-0.00011536
119.3988,-0.0001153534
119.4987,-0.0001152197
119.5987,-0.0001151302
119.6987,-0.0001150916
119.7987,-0.0001150078
119.8987,-0.000115053
119.9987,-0.0001152329
120.0987,-0.0001149438
120.1987,-0.0001149306
120.2987,-0.000114826
120.3987,-0.000114714
120.4987,-0.0001146499
120.5987,-0.0001146094
120.6987,-0.0001145671
120.7987,-0.000114503
120.8987,-0.0001144493
120.9987,-0.0001143486
121.0987,-0.000114245
121.1987,-0.0001141894
121.2987,-0.0001141734
121.3987,-0.0001141169
121.4987,-0.0001141075
121.5987,-0.0001140011
121.6987,-0.000113937
121.7987,-0.0001138504
121.8987,-0.0001137694
121.9987,-0.000113792
122.0987,-0.0001138372
122.1987,-0.0001137129
122.2987,-0.0001136056
122.3987,-0.0001135104
122.4987,-0.0001134285
122.5987,-0.0001134191
122.6987,-0.000113421
122.7987,-0.0001132307
122.8987,-0.0001131629
122.9987,-0.0001131121
123.0987,-0.0001130226
123.1987,-0.0001129991
123.2987,-0.0001129699
123.3987,-0.0001129463
123.4987,-0.0001127806
123.5987,-0.0001127806
123.6987,-0.0001126572
123.7987,-0.0001126111
123.8987,-0.0001126007
123.9987,-0.0001124453
124.0987,-0.0001124387
124.1987,-0.0001123512
124.2987,-0.0001122561
124.3987,-0.0001122193
124.4987,-0.0001121722
124.5987,-0.000112046
124.6987,-0.0001120564
124.7987,-0.0001119509
124.8987,-0.0001118332
124.9987,-0.0001118078
125.0987,-0.0001117475
125.1987,-0.0001116571
125.2987,-0.0001116571
125.3987,-0.0001115601
125.4987,-0.0001115215
125.5987,-0.0001114593
125.6987,-0.0001114499
125.7987,-0.0001113576
125.8987,-0.0001112766
125.9986,-0.0001111928
126.0986,-0.0001110883
126.1986,-0.0001111382
126.2986,-0.0001109263
126.3986,-0.0001109649
126.4986,-0.0001109216
126.5986,-0.0001107813
126.6986,-0.0001107615
126.7986,-0.0001106513
126.8986,-0.0001105638
126.9986,-0.0001105365
127.0986,-0.0001105167
127.1986,-0.0001104423
127.2986,-0.0001104065
127.3986,-0.0001103575
127.4986,-0.0001102455
127.5986,-0.0001102379
127.6986,-0.0001101616
127.7986,-0.0001100675
127.8986,-0.000110042
127.9986,-0.0001099648
128.0986,-0.0001098697
128.1986,-0.0001099319
128.2986,-0.0001098217
128.3986,-0.0001097341
128.4986,-0.0001097313
128.5986,-0.0001096522
128.6987,-0.0001096286
128.7987,-0.0001095599
128.8987,-0.0001094968
128.9987,-0.0001094732
129.0987,-0.0001094412
129.1987,-0.0001093442
129.2987,-0.0001093178
129.3987,-0.0001092114
129.4987,-0.0001091257
129.5987,-0.0001090749
129.6987,-0.0001092604
129.7987,-0.0001090523
129.8987,-0.0001089148
129.9987,-0.0001088376
130.0987,-0.0001087905
130.1987,-0.0001087133
130.2988,-0.0001087001
130.3988,-0.0001086059
130.4988,-0.0001084938
130.5988,-0.000108492
130.6988,-0.0001085117
130.7988,-0.0001084006
130.8988,-0.000108362
130.9988,-0.0001082367
131.0988,-0.0001081821
131.1988,-0.0001081746
131.2988,-0.0001081087
131.3988,-0.0001080484
131.4988,-0.0001079693
131.5988,-0.0001079194
131.6988,-0.0001079081
131.7988,-0.0001078648
131.8988,-0.0001077857
131.9989,-0.0001077809
132.0989,-0.0001076774
132.1989,-0.0001075992
132.2989,-0.0001075983
132.3989,-0.0001075191
132.4989,-0.0001074645
132.5989,-0.0001074532
132.6989,-0.0001073553
132.7989,-0.0001073336
132.8989,-0.0001073317
132.9989,-0.0001072668
133.0989,-0.0001073157
133.1989,-0.0001071754
133.2989,-0.000107005
133.3989,-0.0001069984
133.4989,-0.0001069974
133.599,-0.0001068854
133.699,-0.0001068213
133.799,-0.0001068128
133.899,-0.0001067328
133.999,-0.0001066396
134.099,-0.0001066848
134.199,-0.0001065689
134.299,-0.0001064682
134.399,-0.0001064587
134.499,-0.0001064183
134.599,-0.0001063222
134.699,-0.0001063043
134.799,-0.0001062431
134.899,-0.0001061649
134.999,-0.000106067
135.099,-0.0001060143
135.1991,-0.0001060274
135.2991,-0.0001059898
135.3991,-0.0001058965
135.4991,-0.0001058928
135.5991,-0.0001058655
135.6991,-0.0001057016
135.7991,-0.0001057289
135.8991,-0.0001056997
135.9991,-0.0001055151
136.0991,-0.0001056065
136.1991,-0.0001055038
136.2991,-0.0001054059
136.3991,-0.0001054276
136.4991,-0.00010534
136.5991,-0.0001052769
136.6991,-0.0001052392
136.7991,-0.0001051874
136.8992,-0.0001051027
136.9992,-0.0001050772
137.0992,-0.0001050377
137.1992,-0.0001050688
137.2992,-0.000105032
137.3992,-0.0001050961
137.4992,-0.0001049831
137.5992,-0.0001048823
137.6992,-0.0001048955
137.7992,-0.0001047947
137.8992,-0.000104644
137.9992,-0.000104613
138.0992,-0.0001045668
138.1992,-0.0001045065
138.2992,-0.0001043964
138.3992,-0.0001044124
138.4993,-0.0001043163
138.5993,-0.0001043427
138.6993,-0.0001043455
138.7993,-0.0001042504
138.8993,-0.0001042965
138.9993,-0.0001042994
139.0993,-0.0001041779
139.1993,-0.0001041082
139.2993,-0.0001040423
139.3993,-0.0001039519
139.4993,-0.0001038492
139.5993,-0.000103869
139.6993,-0.0001037211
139.7993,-0.0001037494
139.8993,-0.0001037211
139.9993,-0.0001036147
140.0993,-0.0001035789
140.1994,-0.000103545
140.2994,-0.0001035243
140.3994,-0.0001034273
140.4994,-0.0001033812
140.5994,-0.000103319
140.6994,-0.0001032569
140.7994,-0.0001032352
140.8994,-0.0001030949
140.9994,-0.0001031165
141.0994,-0.0001031326
141.1994,-0.0001029772
141.2994,-0.0001029536
141.3994,-0.0001029687
141.4994,-0.000102866
141.5994,-0.0001028265
141.6994,-0.0001027691
141.7995,-0.0001026598
141.8995,-0.0001026287
141.9995,-0.0001026118
142.0995,-0.0001025251
142.1995,-0.000102479
142.2995,-0.0001024347
142.3995,-0.0001023387
142.4995,-0.0001023114
142.5995,-0.0001022812
142.6995,-0.0001022153
142.7995,-0.0001021899
142.8995,-0.000102156
142.9995,-0.0001020128
143.0995,-0.0001019714
143.1995,-0.0001019224
143.2995,-0.0001018914
143.3996,-0.000101881
143.4996,-0.0001017972
143.5996,-0.0001017529
143.6996,-0.0001016785
143.7996,-0.000101655
143.8996,-0.0001015909
143.9996,-0.0001015382
144.0996,-0.0001015015
144.1996,-0.0001014516
144.2996,-0.0001014487
144.3996,-0.0001013555
144.4996,-0.000101266
144.5996,-0.0001012952
144.6996,-0.0001011926
144.7996,-0.000101138
144.8996,-0.0001011596
144.9996,-0.0001010683
145.0997,-0.0001009685
145.1997,-0.0001009609
145.2997,-0.0001008941
145.3997,-0.0001008743
145.4997,-0.0001008668
145.5997,-0.0001007622
145.6997,-0.000100668
145.7997,-0.0001006859
145.8997,-0.0001006153
145.9997,-0.0001006144
146.0997,-0.0001005513
146.1997,-0.0001004477
146.2997,-0.0001004759
146.3997,-0.000100555
146.4997,-0.0001005532
146.5997,-0.0001004562
146.6998,-0.0001003045
146.7998,-0.0001003074
146.8998,-0.0001002217
146.9998,-0.0001001237
147.0998,-0.0001000842
147.1998,-0.000100006
147.2998,-9.992879E-05
147.3998,-9.992126E-05
147.4998,-9.986569E-05
147.5998,-9.980259E-05
147.6998,-9.969713E-05
147.7998,-9.971314E-05
147.8998,-9.964345E-05
147.9998,-9.959918E-05
148.0998,-9.957563E-05
148.1998,-9.953421E-05
148.2999,-9.945039E-05
148.3999,-9.946451E-05
148.4999,-9.94146E-05
148.5999,-9.934491E-05
148.6999,-9.931196E-05
148.7999,-9.92272E-05
148.8999,-9.918764E-05
148.9999,-9.918953E-05
149.0999,-9.910854E-05
149.1999,-9.908312E-05
149.2999,-9.910666E-05
149.3999,-9.897293E-05
149.4999,-9.891831E-05
149.5999,-9.886464E-05
149.6999,-9.880907E-05
149.7999,-9.876575E-05
149.8999,-9.876575E-05
150,-9.86405E-05
150.1,-9.864238E-05
150.2,-9.860283E-05
150.3,-9.851525E-05
150.4,-9.852656E-05
150.5,-9.850489E-05
150.6,-9.842672E-05
150.7,-9.855763E-05
150.8,-9.845215E-05
150.9,-9.832031E-05
151,-9.831372E-05
151.1,-9.822049E-05
151.2,-9.813761E-05
151.3,-9.814138E-05
151.4,-9.805286E-05
151.5,-9.805003E-05
151.6001,-9.820165E-05
151.7001,-9.802932E-05
151.8001,-9.789465E-05
151.9001,-9.782967E-05
152.0001,-9.774397E-05
152.1001,-9.778824E-05
152.2001,-9.77289E-05
152.3001,-9.763944E-05
152.4001,-9.761025E-05
152.5001,-9.759142E-05
152.6001,-9.75236E-05
152.7001,-9.743697E-05
152.8001,-9.745016E-05
152.9001,-9.735504E-05
153.0001,-9.73249E-05
153.1001,-9.733526E-05
153.2001,-9.721942E-05
153.3002,-9.721189E-05
153.4002,-9.721849E-05
153.5002,-9.70923E-05
153.6002,-9.706216E-05
153.7002,-9.706592E-05
153.8002,-9.699153E-05
153.9002,-9.700848E-05
154.0002,-9.696327E-05
154.1002,-9.685592E-05
154.2002,-9.685874E-05
154.3002,-9.68465E-05
154.4002,-9.666757E-05
154.5002,-9.664121E-05
154.6002,-9.666946E-05
154.7002,-9.657811E-05
154.8002,-9.659318E-05
154.9003,-9.664214E-05
155.0003,-9.667699E-05
155.1003,-9.650936E-05
155.2003,-9.636528E-05
155.3003,-9.637187E-05
155.4003,-9.637563E-05
155.5003,-9.626169E-05
155.6003,-9.61289E-05
155.7003,-9.610065E-05
155.8003,-9.60611E-05
155.9003,-9.604698E-05
156.0003,-9.608747E-05
156.1003,-9.5998E-05
156.2003,-9.587087E-05
156.3003,-9.592078E-05
156.4003,-9.585957E-05
156.5004,-9.581907E-05
156.6004,-9.585392E-05
156.7004,-9.575598E-05
156.8004,-9.570889E-05
156.9004,-9.571266E-05
157.0004,-9.567216E-05
157.1004,-9.569194E-05
157.2004,-9.575032E-05
157.3004,-9.550359E-05
157.4004,-9.545556E-05
157.5004,-9.546875E-05
157.6004,-9.535669E-05
157.7004,-9.538494E-05
157.8004,-9.533502E-05
157.9004,-9.519941E-05
158.0004,-9.52239E-05
158.1004,-9.520412E-05
158.2005,-9.509206E-05
158.3005,-9.507134E-05
158.4005,-9.508075E-05
158.5005,-9.50299E-05
158.6005,-9.502802E-05
158.7005,-9.497528E-05
158.8005,-9.486793E-05
158.9005,-9.487923E-05
159.0005,-9.485568E-05
159.1005,-9.483684E-05
159.2005,-9.484626E-05
159.3005,-9.474832E-05
159.4005,-9.469748E-05
159.5005,-9.470407E-05
159.6005,-9.466075E-05
159.7005,-9.454585E-05
159.8006,-9.448841E-05
159.9006,-9.447428E-05
160.0006,-9.436975E-05
160.1006,-9.439612E-05
160.2006,-9.431984E-05
160.3006,-9.422284E-05
160.4006,-9.423884E-05
160.5006,-9.418611E-05
160.6006,-9.409194E-05
160.7006,-9.410889E-05
160.8006,-9.409194E-05
160.9006,-9.402318E-05
161.0006,-9.397328E-05
161.1006,-9.396763E-05
161.2006,-9.390265E-05
161.3006,-9.389606E-05
161.4007,-9.386875E-05
161.5007,-9.389888E-05
161.6007,-9.398082E-05
161.7007,-9.377363E-05
161.8007,-9.370488E-05
161.9007,-9.365685E-05
162.0007,-9.359282E-05
162.1007,-9.35608E-05
162.2007,-9.354196E-05
162.3007,-9.343555E-05
162.4007,-9.338376E-05
162.5007,-9.339223E-05
162.6007,-9.336021E-05
162.7007,-9.331218E-05
162.8007,-9.330371E-05
162.9007,-9.324533E-05
163.0007,-9.318694E-05
163.1008,-9.318223E-05
163.2008,-9.312007E-05
163.3008,-9.312101E-05
163.4008,-9.310595E-05
163.5008,-9.310312E-05
163.6008,-9.29741E-05
163.7008,-9.300141E-05
163.8008,-9.29402E-05
163.9008,-9.288652E-05
164.0008,-9.292043E-05
164.1008,-9.28432E-05
164.2008,-9.281495E-05
164.3008,-9.277445E-05
164.4008,-9.287711E-05
164.5008,-9.291477E-05
164.6008,-9.27236E-05
164.7009,-9.264543E-05
164.8009,-9.258423E-05
164.9009,-9.246086E-05
165.0009,-9.240247E-05
165.1009,-9.236669E-05
165.2009,-9.231583E-05
165.3009,-9.236952E-05
165.4009,-9.234974E-05
165.5009,-9.226686E-05
165.6009,-9.232901E-05
165.7009,-9.224049E-05
165.8009,-9.21435E-05
165.9009,-9.227722E-05
166.0009,-9.221506E-05
166.1009,-9.198341E-05
166.2009,-9.197681E-05
166.3009,-9.196833E-05
166.401,-9.191842E-05
166.501,-9.186945E-05
166.601,-9.186945E-05
166.701,-9.175832E-05
166.801,-9.169241E-05
166.901,-9.17216E-05
167.001,-9.164344E-05
167.101,-9.163495E-05
167.201,-9.162554E-05
167.301,-9.153608E-05
167.401,-9.157374E-05
167.501,-9.154832E-05
167.601,-9.14485E-05
167.701,-9.144097E-05
167.801,-9.144002E-05
167.901,-9.139482E-05
168.0011,-9.137786E-05
168.1011,-9.132137E-05
168.2011,-9.118293E-05
168.3011,-9.118953E-05
168.4011,-9.122813E-05
168.5011,-9.108123E-05
168.6011,-9.103696E-05
168.7011,-9.102566E-05
168.8011,-9.094938E-05
168.9011,-9.097574E-05
169.0011,-9.096351E-05
169.1011,-9.085615E-05
169.2011,-9.081283E-05
169.3011,-9.078928E-05
169.4011,-9.075632E-05
169.5011,-9.072807E-05
169.6012,-9.069041E-05
169.7012,-9.065462E-05
169.8012,-9.060188E-05
169.9012,-9.058116E-05
170.0012,-9.054066E-05
170.1012,-9.054632E-05
170.2012,-9.04964E-05
170.3012,-9.040506E-05
170.4012,-9.042483E-05
170.5012,-9.034479E-05
170.6012,-9.031654E-05
170.7012,-9.028829E-05
170.8012,-9.021859E-05
170.9012,-9.021295E-05
171.0012,-9.016116E-05
171.1012,-9.011972E-05
171.2012,-9.010465E-05
171.3013,-9.003779E-05
171.4013,-9.001895E-05
171.5013,-9.004437E-05
171.6013,-8.997092E-05
171.7013,-9.000294E-05
171.8013,-8.99276E-05
171.9013,-8.978164E-05
172.0013,-8.979952E-05
172.1013,-8.97741E-05
172.2013,-8.965073E-05
172.3013,-8.964791E-05
172.4013,-8.96432E-05
172.5013,-8.95867E-05
172.6013,-8.95641E-05
172.7013,-8.953867E-05
172.8013,-8.94652E-05
172.9014,-8.945014E-05
173.0014,-8.944073E-05
173.1014,-8.936445E-05
173.2014,-8.937668E-05
173.3014,-8.933619E-05
173.4014,-8.928252E-05
173.5014,-8.92731E-05
173.6014,-8.923072E-05
173.7014,-8.914785E-05
173.8014,-8.911207E-05
173.9014,-8.91243E-05
174.0014,-8.902071E-05
174.1014,-8.902071E-05
174.2014,-8.902448E-05
174.3014,-8.892371E-05
174.4014,-8.887663E-05
174.5014,-8.889075E-05
174.6015,-8.879846E-05
174.7015,-8.877869E-05
174.8015,-8.878057E-05
174.9015,-8.869394E-05
175.0015,-8.871088E-05
175.1015,-8.869958E-05
175.2015,-8.8628E-05
175.3015,-8.857904E-05
175.4015,-8.856021E-05
175.5015,-8.848957E-05
175.6015,-8.845002E-05
175.7015,-8.844437E-05
175.8015,-8.837751E-05
175.9015,-8.835868E-05
176.0015,-8.825886E-05
176.1015,-8.823154E-05
176.2016,-8.830499E-05
176.3016,-8.821742E-05
176.4016,-8.821365E-05
176.5016,-8.81967E-05
176.6016,-8.820329E-05
176.7016,-8.81336E-05
176.8016,-8.80884E-05
176.9016,-8.805073E-05
177.0016,-8.799046E-05
177.1016,-8.797822E-05
177.2016,-8.789251E-05
177.3016,-8.784544E-05
177.4016,-8.78426E-05
177.5016,-8.779082E-05
177.6016,-8.778139E-05
177.7016,-8.779647E-05
177.8017,-8.770701E-05
177.9017,-8.767498E-05
178.0017,-8.764295E-05
178.1017,-8.760623E-05
178.2017,-8.766368E-05
178.3017,-8.75629E-05
178.4017,-8.755632E-05
178.5017,-8.755067E-05
178.6017,-8.746968E-05
178.7017,-8.7416E-05
178.8017,-8.743861E-05
178.9017,-8.742636E-05
179.0017,-8.728888E-05
179.1017,-8.72964E-05
179.2017,-8.724273E-05
179.3017,-8.725874E-05
179.4017,-8.724837E-05
179.5018,-8.723896E-05
179.6018,-8.71495E-05
179.7018,-8.707792E-05
179.8018,-8.701671E-05
179.9018,-8.698187E-05
180.0018,-8.702989E-05
180.1018,-8.693289E-05
180.2018,-8.688675E-05
180.3018,-8.690653E-05
180.4018,-8.680199E-05
180.5018,-8.677186E-05
180.6018,-8.678975E-05
180.7018,-8.671912E-05
180.8018,-8.668616E-05
180.9018,-8.665132E-05
181.0018,-8.660989E-05
181.1019,-8.660705E-05
181.2019,-8.663342E-05
181.3019,-8.663625E-05
181.4019,-8.66645E-05
181.5019,-8.653925E-05
181.6019,-8.647145E-05
181.7019,-8.640741E-05
181.8019,-8.637821E-05
181.9019,-8.632454E-05
182.0019,-8.629345E-05
182.1019,-8.625014E-05
182.2019,-8.61861E-05
182.3019,-8.618798E-05
182.4019,-8.614655E-05
182.5019,-8.604579E-05
182.6019,-8.614372E-05
182.702,-8.602224E-05
182.802,-8.600529E-05
182.902,-8.600435E-05
183.002,-8.598551E-05
183.102,-8.592995E-05
183.202,-8.598363E-05
183.302,-8.588287E-05
183.402,-8.580376E-05
183.502,-8.582165E-05
183.602,-8.579905E-05
183.702,-8.573878E-05
183.802,-8.576892E-05
183.902,-8.571147E-05
184.002,-8.562483E-05
184.102,-8.563331E-05
184.202,-8.558339E-05
184.302,-8.556832E-05
184.4021,-8.558057E-05
184.5021,-8.550429E-05
184.6021,-8.550805E-05
184.7021,-8.55137E-05
184.8021,-8.540446E-05
184.9021,-8.539505E-05
185.0021,-8.537904E-05
185.1021,-8.543178E-05
185.2021,-8.536209E-05
185.3021,-8.525661E-05
185.4021,-8.520481E-05
185.5021,-8.516338E-05
185.6021,-8.514643E-05
185.7021,-8.508333E-05
185.8021,-8.505037E-05
185.9021,-8.506639E-05
186.0022,-8.499387E-05
186.1022,-8.49901E-05
186.2022,-8.497786E-05
186.3022,-8.489688E-05
186.4022,-8.490346E-05
186.5022,-8.485543E-05
186.6022,-8.483189E-05
186.7022,-8.483001E-05
186.8022,-8.478104E-05
186.9022,-8.475656E-05
187.0022,-8.476127E-05
187.1022,-8.470758E-05
187.2022,-8.470476E-05
187.3022,-8.466803E-05
187.4022,-8.455784E-05
187.5022,-8.455596E-05
187.6022,-8.455408E-05
187.7023,-8.443919E-05
187.8023,-8.439305E-05
187.9023,-8.442789E-05
188.0023,-8.439494E-05
188.1023,-8.433465E-05
188.2023,-8.432713E-05
188.3023,-8.425649E-05
188.4023,-8.423202E-05
188.5023,-8.422071E-05
188.6023,-8.417456E-05
188.7023,-8.417551E-05
188.8023,-8.413972E-05
188.9023,-8.402294E-05
189.0023,-8.405119E-05
189.1023,-8.403519E-05
189.2023,-8.400412E-05
189.3024,-8.394195E-05
189.4024,-8.394667E-05
189.5024,-8.386191E-05
189.6024,-8.38685E-05
189.7024,-8.383084E-05
189.8024,-8.379504E-05
189.9024,-8.376585E-05
190.0024,-8.372913E-05
190.1024,-8.370558E-05
190.2024,-8.369429E-05
190.3024,-8.369429E-05
190.4024,-8.360481E-05
190.5024,-8.355774E-05
190.6024,-8.358881E-05
190.7024,-8.352948E-05
190.8024,-8.36293E-05
190.9025,-8.35841E-05
191.0025,-8.355302E-05
191.1025,-8.356338E-05
191.2025,-8.35954E-05
191.3025,-8.34532E-05
191.4025,-8.334396E-05
191.5025,-8.327521E-05
191.6025,-8.322342E-05
191.7025,-8.321212E-05
191.8025,-8.318292E-05
191.9025,-8.31123E-05
192.0025,-8.312265E-05
192.1025,-8.30831E-05
192.2025,-8.302283E-05
192.3025,-8.306991E-05
192.4025,-8.310382E-05
192.5025,-8.304449E-05
192.6026,-8.300399E-05
192.7026,-8.291735E-05
192.8026,-8.287026E-05
192.9026,-8.288722E-05
193.0026,-8.286838E-05
193.1026,-8.280906E-05
193.2026,-8.282225E-05
193.3026,-8.273371E-05
193.4026,-8.2713E-05
193.5026,-8.280152E-05
193.6026,-8.278362E-05
193.7026,-8.277892E-05
193.8026,-8.269605E-05
193.9026,-8.258492E-05
194.0026,-8.258868E-05
194.1026,-8.255008E-05
194.2027,-8.253784E-05
194.3027,-8.250959E-05
194.4027,-8.248699E-05
194.5027,-8.244649E-05
194.6027,-8.2422E-05
194.7027,-8.241447E-05
194.8027,-8.233631E-05
194.9027,-8.235702E-05
195.0027,-8.235891E-05
195.1027,-8.224684E-05
195.2027,-8.231842E-05
195.3027,-8.22393E-05
195.4027,-8.219316E-05
195.5027,-8.2212E-05
195.6027,-8.213195E-05
195.7027,-8.209899E-05
195.8027,-8.21037E-05
195.9028,-8.209711E-05
196.0028,-8.207921E-05
196.1028,-8.207921E-05
196.2028,-8.201611E-05
196.3028,-8.196338E-05
196.4028,-8.192383E-05
196.5028,-8.187863E-05
196.6028,-8.182212E-05
196.7028,-8.17901E-05
196.8028,-8.175055E-05
196.9028,-8.177221E-05
197.0028,-8.173642E-05
197.1028,-8.167333E-05
197.2028,-8.167333E-05
197.3028,-8.166862E-05
197.4028,-8.163471E-05
197.5029,-8.160458E-05
197.6029,-8.155844E-05
197.7029,-8.152358E-05
197.8029,-8.150288E-05
197.9029,-8.148122E-05
198.0029,-8.147556E-05
198.1029,-8.151888E-05
198.2029,-8.139834E-05
198.3029,-8.141436E-05
198.4029,-8.132771E-05
198.5029,-8.126743E-05
198.6029,-8.125143E-05
198.7029,-8.125896E-05
198.8029,-8.118927E-05
198.9029,-8.115631E-05
199.0029,-8.115537E-05
199.103,-8.115537E-05
199.203,-8.114502E-05
199.303,-8.109133E-05
199.403,-8.10659E-05
199.503,-8.101411E-05
199.603,-8.102259E-05
199.703,-8.098681E-05
199.803,-8.099151E-05
199.903,-8.093312E-05
200.003,-8.098962E-05
200.103,-8.096515E-05
200.203,-8.082578E-05
200.303,-8.083801E-05
200.403,-8.082954E-05
200.503,-8.078998E-05
200.603,-8.074478E-05
200.703,-8.069204E-05
200.8031,-8.066661E-05
200.9031,-8.066379E-05
201.0031,-8.058563E-05
201.1031,-8.056585E-05
201.2031,-8.058845E-05
201.3031,-8.053383E-05
201.4031,-8.046226E-05
201.5031,-8.052159E-05
201.6031,-8.046603E-05
201.7031,-8.043495E-05
201.8031,-8.038598E-05
201.9031,-8.037561E-05
202.0031,-8.03709E-05
202.1031,-8.033795E-05
202.2031,-8.032006E-05
202.3031,-8.027768E-05
202.4032,-8.026732E-05
202.5032,-8.022683E-05
202.6032,-8.020234E-05
202.7032,-8.012701E-05
202.8032,-8.01157E-05
202.9032,-8.013548E-05
203.0032,-8.006862E-05
203.1032,-7.999798E-05
203.2032,-7.999987E-05
203.3032,-7.997068E-05
203.4032,-7.991982E-05
203.5032,-7.993112E-05
203.6032,-7.987839E-05
203.7032,-7.986237E-05
203.8032,-7.984355E-05
203.9032,-7.980305E-05
204.0033,-7.976068E-05
204.1033,-7.982565E-05
204.2033,-7.974842E-05
204.3033,-7.973995E-05
204.4033,-7.972583E-05
204.5033,-7.964578E-05
204.6033,-7.959963E-05
204.7033,-7.962977E-05
204.8033,-7.956479E-05
204.9033,-7.951205E-05
205.0033,-7.948851E-05
205.1033,-7.946025E-05
205.2033,-7.943578E-05
205.3033,-7.946025E-05
205.4033,-7.939434E-05
205.5033,-7.937456E-05
205.6033,-7.938963E-05
205.7034,-7.931052E-05
205.8034,-7.933312E-05
205.9034,-7.930958E-05
206.0034,-7.923424E-05
206.1034,-7.923895E-05
206.2034,-7.918903E-05
206.3034,-7.915043E-05
206.4034,-7.91994E-05
206.5034,-7.921823E-05
206.6034,-7.907791E-05
206.7034,-7.904496E-05
206.8034,-7.90506E-05
206.9034,-7.904589E-05
207.0034,-7.904307E-05
207.1034,-7.894701E-05
207.2034,-7.888109E-05
207.3035,-7.889428E-05
207.4035,-7.890087E-05
207.5035,-7.885849E-05
207.6035,-7.883777E-05
207.7035,-7.881706E-05
207.8035,-7.87549E-05
207.9035,-7.876337E-05
208.0035,-7.867863E-05
208.1035,-7.869275E-05
208.2035,-7.872665E-05
208.3035,-7.863907E-05
208.4035,-7.860139E-05
208.5035,-7.854583E-05
208.6035,-7.853266E-05
208.7035,-7.848462E-05
208.8035,-7.847144E-05
208.9035,-7.840363E-05
209.0036,-7.842058E-05
209.1036,-7.844036E-05
209.2036,-7.838857E-05
209.3036,-7.838763E-05
209.4036,-7.834243E-05
209.5036,-7.823318E-05
209.6036,-7.82991E-05
209.7036,-7.824825E-05
209.8036,-7.818986E-05
209.9036,-7.821717E-05
210.0036,-7.81861E-05
210.1036,-7.813995E-05
210.2036,-7.815879E-05
210.3036,-7.811829E-05
210.4036,-7.806555E-05
210.5036,-7.808721E-05
210.6037,-7.804766E-05
210.7037,-7.796102E-05
210.8037,-7.800057E-05
210.9037,-7.798456E-05
211.0037,-7.793088E-05
211.1037,-7.7929E-05
211.2037,-7.788756E-05
211.3037,-7.780469E-05
211.4037,-7.781599E-05
211.5037,-7.780469E-05
211.6037,-7.774254E-05
211.7037,-7.777267E-05
211.8037,-7.777738E-05
211.9037,-7.767379E-05
212.0037,-7.76898E-05
212.1037,-7.762953E-05
212.2038,-7.75994E-05
212.3038,-7.756926E-05
212.4038,-7.758338E-05
212.5038,-7.750711E-05
212.6038,-7.748167E-05
212.7038,-7.750428E-05
212.8038,-7.746661E-05
212.9038,-7.743083E-05
213.0038,-7.742988E-05
213.1038,-7.7331E-05
213.2038,-7.736019E-05
213.3038,-7.733759E-05
213.4038,-7.726884E-05
213.5038,-7.725096E-05
213.6038,-7.723494E-05
213.7038,-7.721141E-05
213.8038,-7.719727E-05
213.9039,-7.71549E-05
214.0039,-7.713136E-05
214.1039,-7.712006E-05
214.2039,-7.710216E-05
214.3039,-7.706638E-05
214.4039,-7.704284E-05
214.5039,-7.700516E-05
214.6039,-7.697879E-05
214.7039,-7.700611E-05
214.8039,-7.694771E-05
214.9039,-7.695243E-05
215.0039,-7.690158E-05
215.1039,-7.681964E-05
215.2039,-7.685919E-05
215.3039,-7.683471E-05
215.4039,-7.675655E-05
215.504,-7.676784E-05
215.604,-7.671981E-05
215.704,-7.668498E-05
215.804,-7.669816E-05
215.904,-7.667179E-05
216.004,-7.66021E-05
216.104,-7.66153E-05
216.204,-7.658232E-05
216.304,-7.650793E-05
216.404,-7.653148E-05
216.504,-7.650981E-05
216.604,-7.647403E-05
216.704,-7.648627E-05
216.804,-7.643918E-05
216.904,-7.641281E-05
217.004,-7.639587E-05
217.104,-7.638361E-05
217.2041,-7.637608E-05
217.3041,-7.636385E-05
217.4041,-7.632523E-05
217.5041,-7.623765E-05
217.6041,-7.626967E-05
217.7041,-7.624424E-05
217.8041,-7.621504E-05
217.9041,-7.618208E-05
218.0041,-7.613972E-05
218.1041,-7.60898E-05
218.2041,-7.611052E-05
218.3041,-7.614913E-05
218.4041,-7.606343E-05
218.5041,-7.609168E-05
218.6041,-7.600316E-05
218.7041,-7.596738E-05
218.8042,-7.599657E-05
218.9042,-7.593913E-05
219.0042,-7.590617E-05
219.1042,-7.590051E-05
219.2042,-7.585814E-05
219.3042,-7.583365E-05
219.4042,-7.582141E-05
219.5042,-7.579409E-05
219.6042,-7.576866E-05
219.7042,-7.576396E-05
219.8042,-7.569898E-05
219.9042,-7.568674E-05
220.0042,-7.569898E-05
220.1042,-7.566225E-05
220.2042,-7.567544E-05
220.3042,-7.563024E-05
220.4043,-7.559821E-05
220.5043,-7.555584E-05
220.6043,-7.556807E-05
220.7043,-7.551064E-05
220.8043,-7.549086E-05
220.9043,-7.549086E-05
221.0043,-7.545601E-05
221.1043,-7.5424E-05
221.2043,-7.540233E-05
221.3043,-7.537785E-05
221.4043,-7.538068E-05
221.5043,-7.536278E-05
221.6043,-7.52865E-05
221.7043,-7.525449E-05
221.8043,-7.527897E-05
221.9043,-7.524977E-05
222.0043,-7.525825E-05
222.1044,-7.52479E-05
222.2044,-7.51848E-05
222.3044,-7.514618E-05
222.4044,-7.520269E-05
222.5044,-7.525072E-05
222.6044,-7.511887E-05
222.7044,-7.505013E-05
222.8044,-7.508497E-05
222.9044,-7.503317E-05
223.0044,-7.495501E-05
223.1044,-7.492959E-05
223.2044,-7.490887E-05
223.3044,-7.490228E-05
223.4044,-7.48599E-05
223.5044,-7.483729E-05
223.6044,-7.480057E-05
223.7045,-7.478362E-05
223.8045,-7.479869E-05
223.9045,-7.472523E-05
224.0045,-7.474501E-05
224.1045,-7.473087E-05
224.2045,-7.467626E-05
224.3045,-7.466966E-05
224.4045,-7.466119E-05
224.5045,-7.462353E-05
224.6045,-7.463859E-05
224.7045,-7.461128E-05
224.8045,-7.45576E-05
224.9045,-7.456043E-05
225.0045,-7.451899E-05
225.1045,-7.449074E-05
225.2045,-7.450769E-05
225.3046,-7.446532E-05
225.4046,-7.44041E-05
225.5046,-7.440222E-05
225.6046,-7.439469E-05
225.7046,-7.435136E-05
225.8046,-7.434195E-05
225.9046,-7.432311E-05
226.0046,-7.427791E-05
226.1046,-7.426002E-05
226.2046,-7.4228E-05
226.3046,-7.423176E-05
226.4046,-7.422235E-05
226.5046,-7.41875E-05
226.6046,-7.415737E-05
226.7046,-7.418656E-05
226.8046,-7.41649E-05
226.9046,-7.408485E-05
227.0047,-7.409992E-05
227.1047,-7.405283E-05
227.2047,-7.399257E-05
227.3047,-7.401611E-05
227.4047,-7.395395E-05
227.5047,-7.394171E-05
227.6047,-7.394548E-05
227.7047,-7.389745E-05
227.8047,-7.385413E-05
227.9047,-7.384377E-05
228.0047,-7.380799E-05
228.1047,-7.38174E-05
228.2047,-7.385978E-05
228.3047,-7.375431E-05
228.4047,-7.37496E-05
228.5047,-7.370063E-05
228.6048,-7.367803E-05
228.7048,-7.368367E-05
228.8048,-7.367144E-05
228.9048,-7.360363E-05
229.0048,-7.359609E-05
229.1048,-7.359892E-05
229.2048,-7.354242E-05
229.3048,-7.350757E-05
229.4048,-7.352735E-05
229.5048,-7.345201E-05
229.6048,-7.344731E-05
229.7048,-7.342376E-05
229.8048,-7.341246E-05
229.9048,-7.340116E-05
230.0048,-7.340398E-05
230.1048,-7.339175E-05
230.2048,-7.338892E-05
230.3049,-7.332394E-05
230.4049,-7.335972E-05
230.5049,-7.33616E-05
230.6049,-7.330981E-05
230.7049,-7.328909E-05
230.8049,-7.323352E-05
230.9049,-7.316761E-05
231.0049,-7.324578E-05
231.1049,-7.317514E-05
231.2049,-7.316196E-05
231.3049,-7.316102E-05
231.4049,-7.310735E-05
231.5049,-7.305931E-05
231.6049,-7.305931E-05
231.7049,-7.299998E-05
231.8049,-7.298585E-05
231.905,-7.298303E-05
232.005,-7.294348E-05
232.105,-7.292747E-05
232.205,-7.292747E-05
232.305,-7.285025E-05
232.405,-7.285872E-05
232.505,-7.291805E-05
232.605,-7.285119E-05
232.705,-7.28154E-05
232.805,-7.279845E-05
232.905,-7.272311E-05
233.005,-7.27928E-05
233.105,-7.274478E-05
233.205,-7.272405E-05
233.305,-7.267132E-05
233.405,-7.271276E-05
233.5051,-7.266661E-05
233.6051,-7.264966E-05
233.7051,-7.265343E-05
233.8051,-7.272029E-05
233.9051,-7.265247E-05
234.0051,-7.263271E-05
234.1051,-7.255736E-05
234.2051,-7.256302E-05
234.3051,-7.253194E-05
234.4051,-7.250463E-05
234.5051,-7.245661E-05
234.6051,-7.240481E-05
234.7051,-7.237184E-05
234.8051,-7.236713E-05
234.9051,-7.232947E-05
235.0051,-7.232193E-05
235.1051,-7.232382E-05
235.2052,-7.227014E-05
235.3052,-7.227108E-05
235.4052,-7.22805E-05
235.5052,-7.228238E-05
235.6052,-7.227014E-05
235.7052,-7.224E-05
235.8052,-7.215807E-05
235.9052,-7.217408E-05
236.0052,-7.215148E-05
236.1052,-7.206484E-05
236.2052,-7.21882E-05
236.3052,-7.213641E-05
236.4052,-7.20413E-05
236.5052,-7.203942E-05
236.6052,-7.203094E-05
236.7052,-7.200645E-05
236.8053,-7.204225E-05
236.9053,-7.203942E-05
237.0053,-7.193205E-05
237.1053,-7.190569E-05
237.2053,-7.188214E-05
237.3053,-7.187367E-05
237.4053,-7.183506E-05
237.5053,-7.184259E-05
237.6053,-7.180492E-05
237.7053,-7.185578E-05
237.8053,-7.178609E-05
237.9053,-7.178327E-05
238.0053,-7.181811E-05
238.1053,-7.175596E-05
238.2053,-7.171264E-05
238.3053,-7.166083E-05
238.4053,-7.166083E-05
238.5054,-7.170792E-05
238.6054,-7.169191E-05
238.7054,-7.159868E-05
238.8054,-7.157608E-05
238.9054,-7.157985E-05
239.0054,-7.15516E-05
239.1054,-7.153276E-05
239.2054,-7.149509E-05
239.3054,-7.151299E-05
239.4054,-7.144895E-05
239.5054,-7.144707E-05
239.6054,-7.147532E-05
239.7054,-7.14499E-05
239.8054,-7.140186E-05
239.9054,-7.140092E-05
240.0054,-7.137173E-05
240.1055,-7.129638E-05
240.2055,-7.133217E-05
240.3055,-7.127378E-05
240.4055,-7.122293E-05
240.5055,-7.128603E-05
240.6055,-7.120315E-05
240.7055,-7.119469E-05
240.8055,-7.120786E-05
240.9055,-7.111463E-05
241.0055,-7.113724E-05
241.1055,-7.110522E-05
241.2055,-7.109485E-05
241.3055,-7.107225E-05
241.4055,-7.100822E-05
241.5055,-7.099221E-05
241.6055,-7.099033E-05
241.7056,-7.095171E-05
241.8056,-7.095548E-05
241.9056,-7.097903E-05
242.0056,-7.09357E-05
242.1056,-7.091311E-05
242.2056,-7.086885E-05
242.3056,-7.079256E-05
242.4056,-7.086131E-05
242.5056,-7.085943E-05
242.6056,-7.077843E-05
242.7056,-7.077656E-05
242.8056,-7.072288E-05
242.9056,-7.068426E-05
243.0056,-7.068897E-05
243.1056,-7.068332E-05
243.2056,-7.062964E-05
243.3056,-7.063717E-05
243.4057,-7.062493E-05
243.5057,-7.06061E-05
243.6057,-7.061363E-05
243.7057,-7.055808E-05
243.8057,-7.051852E-05
243.9057,-7.054772E-05
244.0057,-7.050062E-05
244.1057,-7.042905E-05
244.2057,-7.042623E-05
244.3057,-7.043187E-05
244.4057,-7.03848E-05
244.5057,-7.039515E-05
244.6057,-7.035466E-05
244.7057,-7.030193E-05
244.8057,-7.032359E-05
244.9057,-7.033018E-05
245.0058,-7.028403E-05
245.1058,-7.029344E-05
245.2058,-7.023883E-05
245.3058,-7.018043E-05
245.4058,-7.018703E-05
245.5058,-7.019927E-05
245.6058,-7.017761E-05
245.7058,-7.015595E-05
245.8058,-7.011734E-05
245.9058,-7.004201E-05
246.0058,-7.01117E-05
246.1058,-7.008344E-05
246.2058,-7.003729E-05
246.3058,-7.003541E-05
246.4058,-7.001375E-05
246.5058,-6.994688E-05
246.6059,-6.998456E-05
246.7059,-6.992899E-05
246.8059,-6.989603E-05
246.9059,-6.99111E-05
247.0059,-6.990546E-05
247.1059,-6.984424E-05
247.2059,-6.987154E-05
247.3059,-6.980186E-05
247.4059,-6.983765E-05
247.5059,-6.975853E-05
247.6059,-6.981316E-05
247.7059,-6.977267E-05
247.8059,-6.973594E-05
247.9059,-6.969451E-05
248.0059,-6.973783E-05
248.1059,-6.965024E-05
248.2059,-6.961727E-05
248.306,-6.959939E-05
248.406,-6.961069E-05
248.506,-6.957961E-05
248.606,-6.958714E-05
248.706,-6.956171E-05
248.806,-6.96041E-05
248.906,-6.957867E-05
249.006,-6.952499E-05
249.106,-6.954665E-05
249.206,-6.951086E-05
249.306,-6.941387E-05
249.406,-6.939787E-05
249.506,-6.941198E-05
249.606,-6.935831E-05
249.706,-6.935265E-05
249.806,-6.931875E-05
249.9061,-6.926601E-05
250.0061,-6.931781E-05
250.1061,-6.929897E-05
250.2061,-6.922457E-05
250.3061,-6.928956E-05
250.4061,-6.931216E-05
250.5061,-6.921045E-05
250.6061,-6.918597E-05
250.7061,-6.918126E-05
250.8061,-6.914076E-05
250.9061,-6.921516E-05
251.0061,-6.915489E-05
251.1061,-6.912099E-05
251.2061,-6.915018E-05
251.3061,-6.912099E-05
251.4061,-6.904565E-05
251.5061,-6.908992E-05
251.6062,-6.90852E-05
251.7062,-6.908897E-05
251.8062,-6.90513E-05
251.9062,-6.898915E-05
252.0062,-6.898538E-05
252.1062,-6.899479E-05
252.2062,-6.891286E-05
252.3062,-6.892134E-05
252.4062,-6.891193E-05
252.5062,-6.885824E-05
252.6062,-6.885071E-05
252.7062,-6.880833E-05
252.8062,-6.876972E-05
252.9062,-6.876219E-05
253.0062,-6.879985E-05
253.1062,-6.875842E-05
253.2063,-6.874618E-05
253.3063,-6.873205E-05
253.4063,-6.869815E-05
253.5063,-6.870098E-05
253.6063,-6.870192E-05
253.7063,-6.86473E-05
253.8063,-6.869344E-05
253.9063,-6.863693E-05
254.0063,-6.858421E-05
254.1063,-6.860116E-05
254.2063,-6.858891E-05
254.3063,-6.857761E-05
254.4063,-6.856536E-05
254.5063,-6.851263E-05
254.6063,-6.852299E-05
254.7063,-6.852016E-05
254.8064,-6.849474E-05
254.9064,-6.849474E-05
255.0064,-6.845706E-05
255.1064,-6.837514E-05
255.2064,-6.841092E-05
255.3064,-6.841186E-05
255.4064,-6.841563E-05
255.5064,-6.835159E-05
255.6064,-6.830168E-05
255.7064,-6.828191E-05
255.8064,-6.826589E-05
255.9064,-6.824895E-05
256.0064,-6.82254E-05
256.1064,-6.823011E-05
256.2064,-6.824518E-05
256.3064,-6.814441E-05
256.4064,-6.818491E-05
256.5064,-6.813218E-05
256.6064,-6.812558E-05
256.7065,-6.814065E-05
256.8065,-6.813028E-05
256.9065,-6.808697E-05
257.0065,-6.80606E-05
257.1065,-6.800974E-05
257.2065,-6.79928E-05
257.3065,-6.800786E-05
257.4065,-6.794382E-05
257.5065,-6.797114E-05
257.6065,-6.796077E-05
257.7065,-6.785624E-05
257.8065,-6.790427E-05
257.9065,-6.797679E-05
258.0065,-6.78779E-05
258.1065,-6.789485E-05
258.2065,-6.780068E-05
258.3065,-6.774795E-05
258.4066,-6.775925E-05
258.5066,-6.77244E-05
258.6066,-6.769332E-05
258.7066,-6.767825E-05
258.8066,-6.766225E-05
258.9066,-6.763305E-05
259.0066,-6.763494E-05
259.1066,-6.761422E-05
259.2066,-6.762458E-05
259.3066,-6.762741E-05
259.4066,-6.758219E-05
259.5066,-6.758032E-05
259.6066,-6.754547E-05
259.7066,-6.750874E-05
259.8066,-6.750215E-05
259.9066,-6.74739E-05
260.0067,-6.746071E-05
260.1067,-6.74221E-05
260.2067,-6.737973E-05
260.3067,-6.738066E-05
260.4067,-6.738161E-05
260.5067,-6.74061E-05
260.6067,-6.731098E-05
260.7067,-6.73138E-05
260.8067,-6.729685E-05
260.9067,-6.725353E-05
261.0067,-6.724977E-05
261.1067,-6.724694E-05
261.2067,-6.717442E-05
261.3067,-6.724035E-05
261.4067,-6.722152E-05
261.5067,-6.71669E-05
261.6068,-6.717914E-05
261.7068,-6.713676E-05
261.8068,-6.705577E-05
261.9068,-6.710851E-05
262.0068,-6.71217E-05
262.1068,-6.707084E-05
262.2068,-6.70633E-05
262.3068,-6.702469E-05
262.4068,-6.70134E-05
262.5068,-6.699456E-05
262.6068,-6.697384E-05
262.7068,-6.694276E-05
262.8068,-6.696254E-05
262.9068,-6.690132E-05
263.0068,-6.68759E-05
263.1068,-6.692298E-05
263.2068,-6.684765E-05
263.3069,-6.684294E-05
263.4069,-6.683258E-05
263.5069,-6.683353E-05
263.6069,-6.68194E-05
263.7069,-6.677231E-05
263.8069,-6.674312E-05
263.9069,-6.675537E-05
264.0069,-6.674123E-05
264.1069,-6.673935E-05
264.2069,-6.671581E-05
264.3069,-6.670168E-05
264.4069,-6.663294E-05
264.5069,-6.6648E-05
264.6069,-6.665177E-05
264.7069,-6.665083E-05
264.8069,-6.662541E-05
264.907,-6.659432E-05
265.007,-6.658678E-05
265.107,-6.655289E-05
265.207,-6.657455E-05
265.307,-6.664707E-05
265.407,-6.65689E-05
265.507,-6.656231E-05
265.607,-6.65284E-05
265.707,-6.650393E-05
265.807,-6.645871E-05
265.907,-6.646248E-05
266.007,-6.641351E-05
266.107,-6.637207E-05
266.207,-6.637302E-05
266.307,-6.635324E-05
266.407,-6.631651E-05
266.507,-6.63636E-05
266.6071,-6.632687E-05
266.7071,-6.632499E-05
266.8071,-6.634194E-05
266.9071,-6.627602E-05
267.0071,-6.62845E-05
267.1071,-6.635419E-05
267.2071,-6.630238E-05
267.3071,-6.624118E-05
267.4071,-6.618373E-05
267.5071,-6.614041E-05
267.6071,-6.615642E-05
267.7071,-6.621292E-05
267.8071,-6.614606E-05
267.9071,-6.611687E-05
268.0071,-6.61197E-05
268.1071,-6.609709E-05
268.2072,-6.604341E-05
268.3072,-6.611027E-05
268.4072,-6.605472E-05
268.5072,-6.607542E-05
268.6072,-6.604529E-05
268.7072,-6.600574E-05
268.8072,-6.597843E-05
268.9072,-6.595865E-05
269.0072,-6.592476E-05
269.1072,-6.593417E-05
269.2072,-6.589744E-05
269.3072,-6.589273E-05
269.4072,-6.586072E-05
269.5072,-6.586072E-05
269.6072,-6.584282E-05
269.7072,-6.584753E-05
269.8073,-6.586354E-05
269.9073,-6.58108E-05
270.0073,-6.580044E-05
270.1073,-6.575241E-05
270.2073,-6.577502E-05
270.3073,-6.575713E-05
270.4073,-6.569592E-05
270.5073,-6.567049E-05
270.6073,-6.566012E-05
270.7073,-6.562717E-05
270.8073,-6.564883E-05
270.9073,-6.564317E-05
271.0073,-6.556312E-05
271.1073,-6.558761E-05
271.2073,-6.55716E-05
271.3073,-6.552452E-05
271.4073,-6.554995E-05
271.5074,-6.558291E-05
271.6074,-6.547931E-05
271.7074,-6.549155E-05
271.8074,-6.549155E-05
271.9074,-6.546801E-05
272.0074,-6.543317E-05
272.1074,-6.540491E-05
272.2074,-6.536442E-05
272.3074,-6.536631E-05
272.4074,-6.536442E-05
272.5074,-6.533523E-05
272.6074,-6.529097E-05
272.7074,-6.529757E-05
272.8074,-6.52806E-05
272.9074,-6.528814E-05
273.0074,-6.525894E-05
273.1075,-6.526554E-05
273.2075,-6.52806E-05
273.3075,-6.52646E-05
273.4075,-6.517325E-05
273.5075,-6.517513E-05
273.6075,-6.520433E-05
273.7075,-6.51337E-05
273.8075,-6.51337E-05
273.9075,-6.513464E-05
274.0075,-6.507719E-05
274.1075,-6.509508E-05
274.2075,-6.507531E-05
274.3075,-6.503105E-05
274.4075,-6.502352E-05
274.5075,-6.503764E-05
274.6075,-6.499903E-05
274.7076,-6.497831E-05
274.8076,-6.493781E-05
274.9076,-6.493311E-05
275.0076,-6.49689E-05
275.1076,-6.493405E-05
275.2076,-6.490486E-05
275.3076,-6.488508E-05
275.4076,-6.487095E-05
275.5076,-6.482482E-05
275.6076,-6.493311E-05
275.7076,-6.484742E-05
275.8076,-6.484742E-05
275.9076,-6.478526E-05
276.0076,-6.473535E-05
276.1076,-6.472404E-05
276.2076,-6.476925E-05
276.3076,-6.470804E-05
276.4077,-6.470992E-05
276.5077,-6.469674E-05
276.6077,-6.463458E-05
276.7077,-6.466E-05
276.8077,-6.470992E-05
276.9077,-6.465436E-05
277.0077,-6.464493E-05
277.1077,-6.459692E-05
277.2077,-6.457337E-05
277.3077,-6.456018E-05
277.4077,-6.455641E-05
277.5077,-6.450556E-05
277.6077,-6.449426E-05
277.7077,-6.449709E-05
277.8077,-6.445282E-05
277.9077,-6.443493E-05
278.0078,-6.447166E-05
278.1078,-6.440763E-05
278.2078,-6.444623E-05
278.3078,-6.437466E-05
278.4078,-6.438408E-05
278.5078,-6.437843E-05
278.6078,-6.433699E-05
278.7078,-6.434924E-05
278.8078,-6.432099E-05
278.9078,-6.429838E-05
279.0078,-6.426542E-05
279.1078,-6.424187E-05
279.2078,-6.428143E-05
279.3078,-6.421833E-05
279.4078,-6.425789E-05
279.5078,-6.417314E-05
279.6078,-6.414771E-05
279.7079,-6.415336E-05
279.8079,-6.415619E-05
279.9079,-6.411192E-05
280.0079,-6.412228E-05
280.1079,-6.407424E-05
280.2079,-6.408084E-05
280.3079,-6.406672E-05
280.4079,-6.403188E-05
280.5079,-6.401398E-05
280.6079,-6.404882E-05
280.7079,-6.400173E-05
280.8079,-6.395276E-05
280.9079,-6.395466E-05
281.0079,-6.391792E-05
281.1079,-6.392546E-05
281.2079,-6.39085E-05
281.308,-6.387178E-05
281.408,-6.390097E-05
281.508,-6.387366E-05
281.608,-6.38341E-05
281.708,-6.383034E-05
281.808,-6.382563E-05
281.908,-6.378703E-05
282.008,-6.378326E-05
282.108,-6.375689E-05
282.208,-6.374276E-05
282.308,-6.374182E-05
282.408,-6.373428E-05
282.508,-6.367778E-05
282.608,-6.369472E-05
282.708,-6.366082E-05
282.808,-6.365989E-05
282.9081,-6.367778E-05
283.0081,-6.362599E-05
283.1081,-6.367213E-05
283.2081,-6.368343E-05
283.3081,-6.362316E-05
283.4081,-6.359303E-05
283.5081,-6.357701E-05
283.6081,-6.355536E-05
283.7081,-6.350921E-05
283.8081,-6.354405E-05
283.9081,-6.350545E-05
284.0081,-6.347532E-05
284.1081,-6.349602E-05
284.2081,-6.346589E-05
284.3081,-6.340091E-05
284.4081,-6.348096E-05
284.5081,-6.340185E-05
284.6082,-6.34414E-05
284.7082,-6.341504E-05
284.8082,-6.33915E-05
284.9082,-6.334065E-05
285.0082,-6.337737E-05
285.1082,-6.334629E-05
285.2082,-6.331333E-05
285.3082,-6.331333E-05
285.4082,-6.328979E-05
285.5082,-6.326813E-05
285.6082,-6.326719E-05
285.7082,-6.323893E-05
285.8082,-6.321728E-05
285.9082,-6.322104E-05
286.0082,-6.319844E-05
286.1082,-6.327567E-05
286.2083,-6.321917E-05
286.3083,-6.314665E-05
286.4083,-6.315888E-05
286.5083,-6.314571E-05
286.6083,-6.311369E-05
286.7083,-6.309296E-05
286.8083,-6.307884E-05
286.9083,-6.305624E-05
287.0083,-6.303175E-05
287.1083,-6.305624E-05
287.2083,-6.300821E-05
287.3083,-6.299408E-05
287.4083,-6.299503E-05
287.5083,-6.295547E-05
287.6083,-6.295265E-05
287.7083,-6.294794E-05
287.8083,-6.292063E-05
287.9084,-6.29065E-05
288.0084,-6.288956E-05
288.1084,-6.284434E-05
288.2084,-6.286224E-05
288.3084,-6.286977E-05
288.4084,-6.28274E-05
288.5084,-6.281892E-05
288.6084,-6.279066E-05
288.7084,-6.278596E-05
288.8084,-6.278314E-05
288.9084,-6.275394E-05
289.0084,-6.274547E-05
289.1084,-6.271345E-05
289.2084,-6.271816E-05
289.3084,-6.269179E-05
289.4084,-6.270214E-05
289.5085,-6.266448E-05
289.6085,-6.264941E-05
289.7085,-6.262964E-05
289.8085,-6.261927E-05
289.9085,-6.261174E-05
290.0085,-6.26447E-05
290.1085,-6.256842E-05
290.2085,-6.252604E-05
290.3085,-6.252511E-05
290.4085,-6.248555E-05
290.5085,-6.24799E-05
290.6085,-6.250627E-05
290.7085,-6.250438E-05
290.8085,-6.245635E-05
290.9085,-6.244317E-05
291.0085,-6.238855E-05
291.1086,-6.238667E-05
291.2086,-6.240456E-05
291.3086,-6.238007E-05
291.4086,-6.235088E-05
291.5086,-6.235182E-05
291.6086,-6.232169E-05
291.7086,-6.235371E-05
291.8086,-6.235277E-05
291.9086,-6.228308E-05
292.0086,-6.231038E-05
292.1086,-6.227272E-05
292.2086,-6.222846E-05
292.3086,-6.223505E-05
292.4086,-6.223693E-05
292.5086,-6.222281E-05
292.6086,-6.222093E-05
292.7086,-6.219644E-05
292.8087,-6.214088E-05
292.9087,-6.213145E-05
293.0087,-6.212958E-05
293.1087,-6.212392E-05
293.2087,-6.210415E-05
293.3087,-6.207307E-05
293.4087,-6.2058E-05
293.5087,-6.205894E-05
293.6087,-6.205236E-05
293.7087,-6.202316E-05
293.8087,-6.204388E-05
293.9087,-6.200621E-05
294.0087,-6.200056E-05
294.1087,-6.199867E-05
294.2087,-6.197701E-05
294.3087,-6.192239E-05
294.4088,-6.197984E-05
294.5088,-6.191486E-05
294.6088,-6.191298E-05
294.7088,-6.188755E-05
294.8088,-6.18706E-05
294.9088,-6.184517E-05
295.0088,-6.185742E-05
295.1088,-6.182539E-05
295.2088,-6.179244E-05
295.3088,-6.181504E-05
295.4088,-6.176606E-05
295.5088,-6.175194E-05
295.6088,-6.179808E-05
295.7088,-6.173499E-05
295.8088,-6.171616E-05
295.9088,-6.172086E-05
296.0089,-6.169543E-05
296.1089,-6.169167E-05
296.2089,-6.170203E-05
296.3089,-6.169732E-05
296.4089,-6.167378E-05
296.5089,-6.161445E-05
296.6089,-6.158996E-05
296.7089,-6.157207E-05
296.8089,-6.158996E-05
296.9089,-6.154947E-05
297.0089,-6.157019E-05
297.1089,-6.154382E-05
297.2089,-6.151274E-05
297.3089,-6.150804E-05
297.4089,-6.149391E-05
297.5089,-6.146565E-05
297.6089,-6.147601E-05
297.709,-6.143363E-05
297.809,-6.143458E-05
297.909,-6.144588E-05
298.009,-6.142139E-05
298.109,-6.139126E-05
298.209,-6.137054E-05
298.309,-6.13357E-05
298.409,-6.133098E-05
298.509,-6.131215E-05
298.609,-6.13131E-05
298.709,-6.12952E-05
298.809,-6.13244E-05
298.909,-6.128485E-05
299.009,-6.126129E-05
299.109,-6.12726E-05
299.209,-6.122457E-05
299.3091,-6.123587E-05
299.4091,-6.122363E-05
299.5091,-6.118313E-05
299.6091,-6.118973E-05
299.7091,-6.11709E-05
299.8091,-6.115394E-05
299.9091,-6.116054E-05
300.0091,-6.113322E-05
300.1091,-6.110026E-05
300.2091,-6.110968E-05
300.3091,-6.109649E-05
300.4091,-6.110497E-05
300.5091,-6.110685E-05
300.6091,-6.108425E-05
300.7091,-6.101833E-05
300.8091,-6.104093E-05
300.9091,-6.102586E-05
301.0092,-6.101927E-05
301.1092,-6.100703E-05
301.2092,-6.094488E-05
301.3092,-6.094488E-05
301.4092,-6.098537E-05
301.5092,-6.096466E-05
301.6092,-6.090532E-05
301.7092,-6.092133E-05
301.8092,-6.089685E-05
301.9092,-6.087331E-05
302.0092,-6.089026E-05
302.1092,-6.083752E-05
302.2092,-6.083469E-05
302.3092,-6.083469E-05
302.4092,-6.08168E-05
302.5092,-6.080456E-05
302.6093,-6.080738E-05
302.7093,-6.077254E-05
302.8093,-6.074523E-05
302.9093,-6.075935E-05
303.0093,-6.073581E-05
303.1093,-6.073769E-05
303.2093,-6.07198E-05
303.3093,-6.065577E-05
303.4093,-6.068496E-05
303.5093,-6.070662E-05
303.6093,-6.069626E-05
303.7093,-6.066518E-05
303.8093,-6.060868E-05
303.9093,-6.061998E-05
304.0093,-6.060962E-05
304.1093,-6.055783E-05
304.2094,-6.056159E-05
304.3094,-6.05663E-05
304.4094,-6.056159E-05
304.5094,-6.049755E-05
304.6094,-6.050132E-05
304.7094,-6.046648E-05
304.8094,-6.05258E-05
304.9094,-6.053899E-05
305.0094,-6.049002E-05
305.1094,-6.046271E-05
305.2094,-6.042692E-05
305.3094,-6.040055E-05
305.4094,-6.040997E-05
305.5094,-6.035441E-05
305.6094,-6.036477E-05
305.7094,-6.038832E-05
305.8094,-6.030639E-05
305.9095,-6.036289E-05
306.0095,-6.041751E-05
306.1095,-6.031768E-05
306.2095,-6.033464E-05
306.3095,-6.030356E-05
306.4095,-6.025741E-05
306.5095,-6.025365E-05
306.6095,-6.024611E-05
306.7095,-6.022069E-05
306.8095,-6.018961E-05
306.9095,-6.019997E-05
307.0095,-6.016418E-05
307.1095,-6.015194E-05
307.2095,-6.017548E-05
307.3095,-6.012275E-05
307.4095,-6.011803E-05
307.5096,-6.011239E-05
307.6096,-6.008508E-05
307.7096,-6.005777E-05
307.8096,-6.009826E-05
307.9096,-6.004176E-05
308.0096,-6.001727E-05
308.1096,-6.004552E-05
308.2096,-6.001445E-05
308.3096,-5.997207E-05
308.4096,-6.000597E-05
308.5096,-5.99457E-05
308.6096,-5.9957E-05
308.7096,-5.995229E-05
308.8096,-5.993628E-05
308.9096,-5.99005E-05
309.0096,-5.990897E-05
309.1096,-5.990144E-05
309.2097,-5.988449E-05
309.3097,-5.986471E-05
309.4097,-5.981668E-05
309.5097,-5.980821E-05
309.6097,-5.982421E-05
309.7097,-5.982233E-05
309.8097,-5.981762E-05
309.9097,-5.978655E-05
310.0097,-5.975076E-05
310.1097,-5.977148E-05
310.2097,-5.97517E-05
310.3097,-5.975641E-05
310.4097,-5.976301E-05
310.5097,-5.973663E-05
310.6097,-5.971874E-05
310.7097,-5.967542E-05
310.8098,-5.965941E-05
310.9098,-5.970838E-05
311.0098,-5.969426E-05
311.1098,-5.968389E-05
311.2098,-5.964435E-05
311.3098,-5.961138E-05
311.4098,-5.957748E-05
311.5098,-5.958408E-05
311.6098,-5.95756E-05
311.7098,-5.954735E-05
311.8098,-5.952946E-05
311.9098,-5.952569E-05
312.0098,-5.949743E-05
312.1098,-5.94626E-05
312.2098,-5.94447E-05
312.3098,-5.946824E-05
312.4099,-5.945788E-05
312.5099,-5.937595E-05
312.6099,-5.942963E-05
312.7099,-5.946918E-05
312.8099,-5.942022E-05
312.9099,-5.94447E-05
313.0099,-5.940985E-05
313.1099,-5.93477E-05
313.2099,-5.935523E-05
313.3099,-5.936654E-05
313.4099,-5.931003E-05
313.5099,-5.931097E-05
313.6099,-5.931097E-05
313.7099,-5.926012E-05
313.8099,-5.926954E-05
313.9099,-5.928743E-05
314.0099,-5.922621E-05
314.11,-5.925259E-05
314.21,-5.923469E-05
314.31,-5.920079E-05
314.41,-5.919325E-05
314.51,-5.92055E-05
314.61,-5.9165E-05
314.71,-5.916972E-05
314.81,-5.915935E-05
314.91,-5.911886E-05
315.01,-5.914711E-05
315.11,-5.909061E-05
315.21,-5.906989E-05
315.31,-5.9068E-05
315.41,-5.905859E-05
315.51,-5.906235E-05
315.61,-5.899832E-05
315.7101,-5.899455E-05
315.8101,-5.903505E-05
315.9101,-5.900491E-05
316.0101,-5.898984E-05
316.1101,-5.903787E-05
316.2101,-5.898796E-05
316.3101,-5.894558E-05
316.4101,-5.894652E-05
316.5101,-5.890226E-05
316.6101,-5.889379E-05
316.7101,-5.894746E-05
316.8101,-5.891827E-05
316.9101,-5.888908E-05
317.0101,-5.884764E-05
317.1101,-5.884576E-05
317.2101,-5.882975E-05
317.3102,-5.881374E-05
317.4102,-5.88015E-05
317.5102,-5.877513E-05
317.6102,-5.877983E-05
317.7102,-5.8761E-05
317.8102,-5.874499E-05
317.9102,-5.874876E-05
318.0102,-5.872898E-05
318.1102,-5.871486E-05
318.2102,-5.872145E-05
318.3102,-5.868566E-05
318.4102,-5.869037E-05
318.5102,-5.872427E-05
318.6102,-5.866495E-05
318.7102,-5.866966E-05
318.8102,-5.863387E-05
318.9102,-5.860844E-05
319.0103,-5.859714E-05
319.1103,-5.862822E-05
319.2103,-5.858866E-05
319.3103,-5.856324E-05
319.4103,-5.856983E-05
319.5103,-5.855288E-05
319.6103,-5.853499E-05
319.7103,-5.853875E-05
319.8103,-5.850485E-05
319.9103,-5.846624E-05
320.0103,-5.849543E-05
320.1103,-5.849072E-05
320.2103,-5.848037E-05
320.3103,-5.844364E-05
320.4103,-5.841915E-05
320.5103,-5.842763E-05
320.6104,-5.843516E-05
320.7104,-5.83909E-05
320.8104,-5.83683E-05
320.9104,-5.836736E-05
321.0104,-5.835606E-05
321.1104,-5.834475E-05
321.2104,-5.832498E-05
321.3104,-5.831274E-05
321.4104,-5.830991E-05
321.5104,-5.831556E-05
321.6104,-5.827789E-05
321.7104,-5.825058E-05
321.8104,-5.824964E-05
321.9104,-5.825058E-05
322.0104,-5.824493E-05
322.1104,-5.823175E-05
322.2104,-5.820444E-05
322.3105,-5.820632E-05
322.4105,-5.819784E-05
322.5105,-5.817524E-05
322.6105,-5.816206E-05
322.7105,-5.817148E-05
322.8105,-5.814794E-05
322.9105,-5.812439E-05
323.0105,-5.813851E-05
323.1105,-5.809049E-05
323.2105,-5.809049E-05
323.3105,-5.806977E-05
323.4105,-5.806412E-05
323.5105,-5.805659E-05
323.6105,-5.805282E-05
323.7105,-5.803775E-05
323.8105,-5.800008E-05
323.9106,-5.800668E-05
324.0106,-5.798878E-05
324.1106,-5.799161E-05
324.2106,-5.799066E-05
324.3106,-5.793793E-05
324.4106,-5.793322E-05
324.5106,-5.793793E-05
324.6106,-5.792286E-05
324.7106,-5.789555E-05
324.8106,-5.790591E-05
324.9106,-5.788048E-05
325.0106,-5.785694E-05
325.1106,-5.784375E-05
325.2106,-5.787766E-05
325.3106,-5.784847E-05
325.4106,-5.785506E-05
325.5107,-5.788048E-05
325.6107,-5.78221E-05
325.7107,-5.779667E-05
325.8107,-5.779007E-05
325.9107,-5.778254E-05
326.0107,-5.773922E-05
326.1107,-5.773357E-05
326.2107,-5.774675E-05
326.3107,-5.772604E-05
326.4107,-5.77185E-05
326.5107,-5.769025E-05
326.6107,-5.772886E-05
326.7107,-5.771945E-05
326.8107,-5.769967E-05
326.9107,-5.764129E-05
327.0107,-5.766671E-05
327.1107,-5.7662E-05
327.2108,-5.761398E-05
327.3108,-5.759325E-05
327.4108,-5.758195E-05
327.5108,-5.756123E-05
327.6108,-5.756595E-05
327.7108,-5.752168E-05
327.8108,-5.756877E-05
327.9108,-5.760455E-05
328.0108,-5.753487E-05
328.1108,-5.75085E-05
328.2108,-5.748024E-05
328.3108,-5.747271E-05
328.4108,-5.748684E-05
328.5108,-5.745388E-05
328.6108,-5.74294E-05
328.7108,-5.742092E-05
328.8109,-5.74115E-05
328.9109,-5.741433E-05
329.0109,-5.741338E-05
329.1109,-5.74002E-05
329.2109,-5.735688E-05
329.3109,-5.736629E-05
329.4109,-5.734841E-05
329.5109,-5.734464E-05
329.6109,-5.730885E-05
329.7109,-5.73032E-05
329.8109,-5.728343E-05
329.9109,-5.728813E-05
330.0109,-5.728907E-05
330.1109,-5.726459E-05
330.2109,-5.723916E-05
330.3109,-5.721656E-05
330.4109,-5.721562E-05
330.511,-5.72175E-05
330.611,-5.720903E-05
330.711,-5.716853E-05
330.811,-5.718643E-05
330.911,-5.720055E-05
331.011,-5.718831E-05
331.111,-5.715064E-05
331.211,-5.713181E-05
331.311,-5.713745E-05
331.411,-5.714217E-05
331.511,-5.714876E-05
331.611,-5.712051E-05
331.711,-5.707436E-05
331.811,-5.706023E-05
331.911,-5.705458E-05
332.011,-5.704046E-05
332.1111,-5.702539E-05
332.2111,-5.698678E-05
332.3111,-5.69896E-05
332.4111,-5.697737E-05
332.5111,-5.698772E-05
332.6111,-5.696512E-05
332.7111,-5.694158E-05
332.8111,-5.693875E-05
332.9111,-5.692651E-05
333.0111,-5.693499E-05
333.1111,-5.690862E-05
333.2111,-5.690485E-05
333.3111,-5.688507E-05
333.4111,-5.689072E-05
333.5111,-5.68653E-05
333.6111,-5.684364E-05
333.7112,-5.686812E-05
333.8112,-5.687283E-05
333.9112,-5.683422E-05
334.0112,-5.683987E-05
334.1112,-5.682574E-05
334.2112,-5.673816E-05
334.3112,-5.676548E-05
334.4112,-5.676076E-05
334.5112,-5.673628E-05
334.6112,-5.672498E-05
334.7112,-5.671933E-05
334.8112,-5.668825E-05
334.9112,-5.671274E-05
335.0112,-5.669767E-05
335.1112,-5.668825E-05
335.2112,-5.670332E-05
335.3112,-5.669013E-05
335.4113,-5.663457E-05
335.5113,-5.666188E-05
335.6113,-5.662515E-05
335.7113,-5.65969E-05
335.8113,-5.660067E-05
335.9113,-5.658466E-05
336.0113,-5.657619E-05
336.1113,-5.657901E-05
336.2113,-5.655358E-05
336.3113,-5.652062E-05
336.4113,-5.652816E-05
336.5113,-5.650461E-05
336.6113,-5.64839E-05
336.7113,-5.649708E-05
336.8113,-5.650085E-05
336.9113,-5.647636E-05
337.0114,-5.647448E-05
337.1114,-5.641703E-05
337.2114,-5.641892E-05
337.3114,-5.643963E-05
337.4114,-5.642551E-05
337.5114,-5.642739E-05
337.6114,-5.645094E-05
337.7114,-5.640479E-05
337.8114,-5.638501E-05
337.9114,-5.642268E-05
338.0114,-5.63643E-05
338.1114,-5.633698E-05
338.2114,-5.633887E-05
338.3114,-5.630779E-05
338.4114,-5.629555E-05
338.5114,-5.631438E-05
338.6115,-5.628048E-05
338.7115,-5.625411E-05
338.8115,-5.624941E-05
338.9115,-5.623434E-05
339.0115,-5.621456E-05
339.1115,-5.620325E-05
339.2115,-5.619384E-05
339.3115,-5.617501E-05
339.4115,-5.618442E-05
339.5115,-5.617124E-05
339.6115,-5.615241E-05
339.7115,-5.616465E-05
339.8115,-5.61298E-05
339.9115,-5.613168E-05
340.0115,-5.615806E-05
340.1115,-5.612321E-05
340.2115,-5.60959E-05
340.3116,-5.609402E-05
340.4116,-5.606388E-05
340.5116,-5.606105E-05
340.6116,-5.605541E-05
340.7116,-5.604599E-05
340.8116,-5.604599E-05
340.9116,-5.602998E-05
341.0116,-5.602245E-05
341.1116,-5.597818E-05
341.2116,-5.601586E-05
341.3116,-5.601209E-05
341.4116,-5.59424E-05
341.5116,-5.598478E-05
341.6116,-5.597724E-05
341.7116,-5.595558E-05
341.8116,-5.592733E-05
341.9117,-5.5965E-05
342.0117,-5.595276E-05
342.1117,-5.589908E-05
342.2117,-5.588401E-05
342.3117,-5.58793E-05
342.4117,-5.589814E-05
342.5117,-5.587648E-05
342.6117,-5.58454E-05
342.7117,-5.584634E-05
342.8117,-5.583316E-05
342.9117,-5.58341E-05
343.0117,-5.583127E-05
343.1117,-5.577383E-05
343.2117,-5.578984E-05
343.3117,-5.581621E-05
343.4117,-5.578419E-05
343.5117,-5.574746E-05
343.6118,-5.576064E-05
343.7118,-5.57258E-05
343.8118,-5.570979E-05
343.9118,-5.569566E-05
344.0118,-5.569378E-05
344.1118,-5.566271E-05
344.2118,-5.569378E-05
344.3118,-5.565988E-05
344.4118,-5.563728E-05
344.5118,-5.565612E-05
344.6118,-5.563728E-05
344.7118,-5.560903E-05
344.8118,-5.560149E-05
344.9118,-5.559302E-05
345.0118,-5.558925E-05
345.1118,-5.559867E-05
345.2119,-5.558454E-05
345.3119,-5.556571E-05
345.4119,-5.554216E-05
345.5119,-5.554499E-05
345.6119,-5.553557E-05
345.7119,-5.554781E-05
345.8119,-5.552145E-05
345.9119,-5.552333E-05
346.0119,-5.549602E-05
346.1119,-5.547153E-05
346.2119,-5.547624E-05
346.3119,-5.54753E-05
346.4119,-5.544799E-05
346.5119,-5.545458E-05
346.6119,-5.542256E-05
346.7119,-5.540938E-05
346.812,-5.54075E-05
346.912,-5.541691E-05
347.012,-5.539055E-05
347.112,-5.54075E-05
347.212,-5.537642E-05
347.312,-5.536512E-05
347.412,-5.536512E-05
347.512,-5.534722E-05
347.612,-5.535476E-05
347.712,-5.534722E-05
347.812,-5.530861E-05
347.912,-5.532462E-05
348.012,-5.52879E-05
348.112,-5.524081E-05
348.212,-5.528507E-05
348.312,-5.526718E-05
348.412,-5.524457E-05
348.5121,-5.522951E-05
348.6121,-5.523516E-05
348.7121,-5.521444E-05
348.8121,-5.525399E-05
348.9121,-5.517018E-05
349.0121,-5.519937E-05
349.1121,-5.521726E-05
349.2121,-5.520126E-05
349.3121,-5.512592E-05
349.4121,-5.515135E-05
349.5121,-5.517677E-05
349.6121,-5.51165E-05
349.7121,-5.511462E-05
349.8121,-5.508354E-05
349.9121,-5.506471E-05
350.0121,-5.507789E-05
350.1122,-5.505811E-05
350.2122,-5.501103E-05
350.3122,-5.501008E-05
350.4122,-5.501103E-05
350.5122,-5.498937E-05
350.6122,-5.49969E-05
350.7122,-5.49743E-05
350.8122,-5.494793E-05
350.9122,-5.495641E-05
351.0122,-5.494793E-05
351.1122,-5.494981E-05
351.2122,-5.495453E-05
351.3122,-5.493851E-05
351.4122,-5.491309E-05
351.5122,-5.493663E-05
351.6122,-5.489613E-05
351.7122,-5.48547E-05
351.8123,-5.486977E-05
351.9123,-5.485093E-05
352.0123,-5.48368E-05
352.1123,-5.482834E-05
352.2123,-5.481326E-05
352.3123,-5.477936E-05
352.4123,-5.481044E-05
352.5123,-5.479349E-05
352.6123,-5.476241E-05
352.7123,-5.478124E-05
352.8123,-5.472003E-05
352.9123,-5.473792E-05
353.0123,-5.474546E-05
353.1123,-5.470967E-05
353.2123,-5.468613E-05
353.3123,-5.469555E-05
353.4124,-5.469178E-05
353.5124,-5.467389E-05
353.6124,-5.466541E-05
353.7124,-5.465788E-05
353.8124,-5.465317E-05
353.9124,-5.465599E-05
354.0124,-5.460608E-05
354.1124,-5.460703E-05
354.2124,-5.461456E-05
354.3124,-5.457877E-05
354.4124,-5.456747E-05
354.5124,-5.458819E-05
354.6124,-5.45477E-05
354.7124,-5.456559E-05
354.8124,-5.456087E-05
354.9124,-5.454299E-05
355.0125,-5.453263E-05
355.1125,-5.451945E-05
355.2125,-5.448648E-05
355.3125,-5.447707E-05
355.4125,-5.445917E-05
355.5125,-5.448554E-05
355.6125,-5.443563E-05
355.7125,-5.440361E-05
355.8125,-5.441491E-05
355.9125,-5.441303E-05
356.0125,-5.440079E-05
356.1125,-5.443186E-05
356.2125,-5.440738E-05
356.3125,-5.436123E-05
356.4125,-5.437253E-05
356.5125,-5.434711E-05
356.6125,-5.426046E-05
356.7126,-5.428589E-05
356.8126,-5.43019E-05
356.9126,-5.427648E-05
357.0126,-5.426611E-05
357.1126,-5.424728E-05
357.2126,-5.422091E-05
357.3126,-5.421621E-05
357.4126,-5.423786E-05
357.5126,-5.422563E-05
357.6126,-5.420208E-05
357.7126,-5.421338E-05
357.8126,-5.42115E-05
357.9126,-5.419078E-05
358.0126,-5.418136E-05
358.1126,-5.416347E-05
358.2126,-5.415782E-05
358.3127,-5.415028E-05
358.4127,-5.41145E-05
358.5127,-5.410414E-05
358.6127,-5.413804E-05
358.7127,-5.411168E-05
358.8127,-5.409096E-05
358.9127,-5.403727E-05
359.0127,-5.407306E-05
359.1127,-5.409001E-05
359.2127,-5.405611E-05
359.3127,-5.403727E-05
359.4127,-5.401468E-05
359.5127,-5.398454E-05
359.6127,-5.395723E-05
359.7127,-5.399866E-05
359.8127,-5.392615E-05
359.9128,-5.39205E-05
360.0128,-5.392898E-05
360.1128,-5.390732E-05
360.2128,-5.386776E-05
360.3128,-5.386023E-05
360.4128,-5.383103E-05
360.5128,-5.38301E-05
360.6128,-5.385269E-05
360.7128,-5.382821E-05
360.8128,-5.380467E-05
360.9128,-5.381315E-05
361.0128,-5.382445E-05
361.1128,-5.382633E-05
361.2128,-5.376888E-05
361.3128,-5.377077E-05
361.4128,-5.379337E-05
361.5128,-5.376229E-05
361.6129,-5.377548E-05
361.7129,-5.375946E-05
361.8129,-5.371238E-05
361.9129,-5.375099E-05
362.0129,-5.374628E-05
362.1129,-5.37152E-05
362.2129,-5.371897E-05
362.3129,-5.371332E-05
362.4129,-5.371144E-05
362.5129,-5.370579E-05
362.6129,-5.368224E-05
362.7129,-5.365964E-05
362.8129,-5.362574E-05
362.9129,-5.3654E-05
363.0129,-5.363422E-05
363.1129,-5.362197E-05
363.213,-5.361632E-05
363.313,-5.358054E-05
363.413,-5.355417E-05
363.513,-5.356453E-05
363.613,-5.3573E-05
363.713,-5.355417E-05
363.813,-5.355699E-05
363.913,-5.353628E-05
364.013,-5.351368E-05
364.113,-5.353345E-05
364.213,-5.348354E-05
364.313,-5.348919E-05
364.413,-5.349484E-05
364.513,-5.346659E-05
364.613,-5.345152E-05
364.713,-5.345529E-05
364.813,-5.345435E-05
364.9131,-5.344493E-05
365.0131,-5.345058E-05
365.1131,-5.340161E-05
365.2131,-5.342892E-05
365.3131,-5.342515E-05
365.4131,-5.340914E-05
365.5131,-5.342138E-05
365.6131,-5.339031E-05
365.7131,-5.334699E-05
365.8131,-5.337712E-05
365.9131,-5.33451E-05
366.0131,-5.331121E-05
366.1131,-5.333192E-05
366.2131,-5.332533E-05
366.3131,-5.331026E-05
366.4131,-5.332062E-05
366.5132,-5.329049E-05
366.6132,-5.328578E-05
366.7132,-5.330084E-05
366.8132,-5.326412E-05
366.9132,-5.324434E-05
367.0132,-5.327353E-05
367.1132,-5.323775E-05
367.2132,-5.320949E-05
367.3132,-5.323492E-05
367.4132,-5.321609E-05
367.5132,-5.318124E-05
367.6132,-5.320573E-05
367.7132,-5.316806E-05
367.8132,-5.315958E-05
367.9132,-5.317088E-05
368.0132,-5.315205E-05
368.1133,-5.310214E-05
368.2133,-5.31577E-05
368.3133,-5.313133E-05
368.4133,-5.309743E-05
368.5133,-5.310025E-05
368.6133,-5.310402E-05
368.7133,-5.307671E-05
368.8133,-5.308236E-05
368.9133,-5.305787E-05
369.0133,-5.301833E-05
369.1133,-5.305505E-05
369.2133,-5.30381E-05
369.3133,-5.303528E-05
369.4133,-5.301361E-05
369.5133,-5.297877E-05
369.6133,-5.302115E-05
369.7133,-5.303339E-05
369.8134,-5.300043E-05
369.9134,-5.297689E-05
370.0134,-5.298348E-05
370.1134,-5.297689E-05
370.2134,-5.294392E-05
370.3134,-5.295899E-05
370.4134,-5.292415E-05
370.5134,-5.291473E-05
370.6134,-5.292415E-05
370.7134,-5.289119E-05
370.8134,-5.288177E-05
370.9134,-5.289119E-05
371.0134,-5.28667E-05
371.1134,-5.285729E-05
371.2134,-5.286105E-05
371.3134,-5.281773E-05
371.4135,-5.279984E-05
371.5135,-5.284598E-05
371.6135,-5.283657E-05
371.7135,-5.281397E-05
371.8135,-5.28102E-05
371.9135,-5.278854E-05
372.0135,-5.275558E-05
372.1135,-5.278666E-05
372.2135,-5.27537E-05
372.3135,-5.274993E-05
372.4135,-5.275652E-05
372.5135,-5.274051E-05
372.6135,-5.27198E-05
372.7135,-5.270284E-05
372.8135,-5.271038E-05
372.9135,-5.269813E-05
373.0135,-5.267554E-05
373.1136,-5.267554E-05
373.2136,-5.263598E-05
373.3136,-5.262374E-05
373.4136,-5.26341E-05
373.5136,-5.26454E-05
373.6136,-5.26454E-05
373.7136,-5.262091E-05
373.8136,-5.261809E-05
373.9136,-5.259078E-05
374.0136,-5.259548E-05
374.1136,-5.258136E-05
374.2136,-5.254652E-05
374.3136,-5.25484E-05
374.4136,-5.252862E-05
374.5136,-5.251544E-05
374.6136,-5.251638E-05
374.7137,-5.252203E-05
374.8137,-5.252015E-05
374.9137,-5.250319E-05
375.0137,-5.250696E-05
375.1137,-5.246082E-05
375.2137,-5.247494E-05
375.3137,-5.248153E-05
375.4137,-5.245517E-05
375.5137,-5.2458E-05
375.6137,-5.248248E-05
375.7137,-5.244293E-05
375.8137,-5.244575E-05
375.9137,-5.237324E-05
376.0137,-5.236382E-05
376.1137,-5.240714E-05
376.2137,-5.236947E-05
376.3138,-5.23544E-05
376.4138,-5.237701E-05
376.5138,-5.233463E-05
376.6138,-5.230073E-05
376.7138,-5.233651E-05
376.8138,-5.231108E-05
376.9138,-5.228283E-05
377.0138,-5.228471E-05
377.1138,-5.230261E-05
377.2138,-5.228754E-05
377.3138,-5.229884E-05
377.4138,-5.226023E-05
377.5138,-5.222444E-05
377.6138,-5.223669E-05
377.7138,-5.224234E-05
377.8138,-5.221786E-05
377.9138,-5.222068E-05
378.0139,-5.219902E-05
378.1139,-5.218866E-05
378.2139,-5.218018E-05
378.3139,-5.21717E-05
378.4139,-5.215946E-05
378.5139,-5.217453E-05
378.6139,-5.214063E-05
378.7139,-5.21378E-05
378.8139,-5.215664E-05
378.9139,-5.213216E-05
379.0139,-5.211897E-05
379.1139,-5.213686E-05
379.2139,-5.212368E-05
379.3139,-5.212556E-05
379.4139,-5.209825E-05
379.5139,-5.204363E-05
379.614,-5.203139E-05
379.714,-5.206623E-05
379.814,-5.205023E-05
379.914,-5.202856E-05
380.014,-5.204363E-05
380.114,-5.201915E-05
380.214,-5.199843E-05
380.314,-5.202292E-05
380.414,-5.197206E-05
380.514,-5.200408E-05
380.614,-5.201444E-05
380.714,-5.199089E-05
380.814,-5.198336E-05
380.914,-5.197583E-05
381.014,-5.197112E-05
381.114,-5.195888E-05
381.2141,-5.193722E-05
381.3141,-5.190896E-05
381.4141,-5.190331E-05
381.5141,-5.18826E-05
381.6141,-5.188354E-05
381.7141,-5.18647E-05
381.8141,-5.184492E-05
381.9141,-5.183363E-05
382.0141,-5.184681E-05
382.1141,-5.185999E-05
382.2141,-5.185057E-05
382.3141,-5.18421E-05
382.4141,-5.180631E-05
382.5141,-5.182704E-05
382.6141,-5.180726E-05
382.7141,-5.177806E-05
382.8141,-5.178183E-05
382.9142,-5.178748E-05
383.0142,-5.177241E-05
383.1142,-5.1779E-05
383.2142,-5.172062E-05
383.3142,-5.173945E-05
383.4142,-5.175075E-05
383.5142,-5.168483E-05
383.6142,-5.168766E-05
383.7142,-5.16886E-05
383.8142,-5.167542E-05
383.9142,-5.16547E-05
384.0142,-5.168295E-05
384.1142,-5.165375E-05
384.2142,-5.165564E-05
384.3142,-5.168295E-05
384.4142,-5.163963E-05
384.5143,-5.159914E-05
384.6143,-5.161985E-05
384.7143,-5.160102E-05
384.8143,-5.159725E-05
384.9143,-5.161514E-05
385.0143,-5.159254E-05
385.1143,-5.155487E-05
385.2143,-5.156994E-05
385.3143,-5.1569E-05
385.4143,-5.156335E-05
385.5143,-5.156335E-05
385.6143,-5.152945E-05
385.7143,-5.15012E-05
385.8143,-5.153604E-05
385.9143,-5.151815E-05
386.0143,-5.15172E-05
386.1143,-5.150213E-05
386.2144,-5.149554E-05
386.3144,-5.149272E-05
386.4144,-5.148801E-05
386.5144,-5.147106E-05
386.6144,-5.143433E-05
386.7144,-5.146164E-05
386.8144,-5.146259E-05
386.9144,-5.143904E-05
387.0144,-5.143151E-05
387.1144,-5.142962E-05
387.2144,-5.13863E-05
387.3144,-5.143339E-05
387.4144,-5.140984E-05
387.5144,-5.137501E-05
387.6144,-5.139666E-05
387.7144,-5.13863E-05
387.8145,-5.134863E-05
387.9145,-5.135617E-05
388.0145,-5.133922E-05
388.1145,-5.133074E-05
388.2145,-5.131473E-05
388.3145,-5.131661E-05
388.4145,-5.129589E-05
388.5145,-5.132321E-05
388.6145,-5.126576E-05
388.7145,-5.125917E-05
388.8145,-5.128742E-05
388.9145,-5.129966E-05
389.0145,-5.127894E-05
389.1145,-5.123469E-05
389.2145,-5.123563E-05
389.3145,-5.123092E-05
389.4146,-5.122338E-05
389.5146,-5.122997E-05
389.6146,-5.119042E-05
389.7146,-5.116594E-05
389.8146,-5.116594E-05
389.9146,-5.116028E-05
390.0146,-5.116311E-05
390.1146,-5.112544E-05
390.2146,-5.114051E-05
390.3146,-5.112733E-05
390.4146,-5.112733E-05
390.5146,-5.11132E-05
390.6146,-5.108024E-05
390.7146,-5.108589E-05
390.8146,-5.109154E-05
390.9146,-5.105858E-05
391.0146,-5.104822E-05
391.1147,-5.104351E-05
391.2147,-5.103692E-05
391.3147,-5.102091E-05
391.4147,-5.102374E-05
391.5147,-5.101244E-05
391.6147,-5.100019E-05
391.7147,-5.101056E-05
391.8147,-5.097194E-05
391.9147,-5.099266E-05
392.0147,-5.097571E-05
392.1147,-5.094557E-05
392.2147,-5.09597E-05
392.3147,-5.0971E-05
392.4147,-5.091355E-05
392.5147,-5.091826E-05
392.6147,-5.092674E-05
392.7148,-5.090508E-05
392.8148,-5.090978E-05
392.9148,-5.090696E-05
393.0148,-5.086364E-05
393.1148,-5.091261E-05
393.2148,-5.090978E-05
393.3148,-5.085046E-05
393.4148,-5.085611E-05
393.5148,-5.084481E-05
393.6148,-5.08288E-05
393.7148,-5.082597E-05
393.8148,-5.081185E-05
393.9148,-5.077889E-05
394.0148,-5.080996E-05
394.1148,-5.079395E-05
394.2148,-5.075251E-05
394.3148,-5.079019E-05
394.4149,-5.073933E-05
394.5149,-5.072709E-05
394.6149,-5.074687E-05
394.7149,-5.072709E-05
394.8149,-5.070543E-05
394.9149,-5.071485E-05
395.0149,-5.069131E-05
395.1149,-5.069225E-05
395.2149,-5.070166E-05
395.3149,-5.068754E-05
395.4149,-5.064987E-05
395.5149,-5.066965E-05
395.6149,-5.066117E-05
395.7149,-5.062727E-05
395.8149,-5.064987E-05
395.9149,-5.061974E-05
396.015,-5.061126E-05
396.115,-5.061879E-05
396.215,-5.059243E-05
396.315,-5.057453E-05
396.415,-5.059713E-05
396.515,-5.057358E-05
396.615,-5.055475E-05
396.715,-5.056605E-05
396.815,-5.053874E-05
396.915,-5.05331E-05
397.015,-5.054251E-05
397.115,-5.052367E-05
397.215,-5.049166E-05
397.315,-5.050673E-05
397.415,-5.049825E-05
397.515,-5.050013E-05
397.6151,-5.048224E-05
397.7151,-5.046812E-05
397.8151,-5.046529E-05
397.9151,-5.047094E-05
398.0151,-5.04182E-05
398.1151,-5.042009E-05
398.2151,-5.046058E-05
398.3151,-5.041632E-05
398.4151,-5.040596E-05
398.5151,-5.04135E-05
398.6151,-5.038242E-05
398.7151,-5.0373E-05
398.8151,-5.040596E-05
398.9151,-5.037017E-05
399.0151,-5.035511E-05
399.1151,-5.036547E-05
399.2151,-5.033439E-05
399.3152,-5.031179E-05
399.4152,-5.032121E-05
399.5152,-5.02873E-05
399.6152,-5.032121E-05
399.7152,-5.032026E-05
399.8152,-5.028448E-05
399.9152,-5.030613E-05
400.0152,-5.029013E-05
400.1152,-5.027035E-05
400.2152,-5.02939E-05
400.3152,-5.024681E-05
400.4152,-5.02421E-05
400.5152,-5.023174E-05
400.6152,-5.023456E-05
400.7152,-5.024022E-05
400.8152,-5.022891E-05
400.9153,-5.01856E-05
401.0153,-5.021479E-05
401.1153,-5.020537E-05
401.2153,-5.020537E-05
401.3153,-5.020349E-05
401.4153,-5.016111E-05
401.5153,-5.012909E-05
401.6153,-5.018748E-05
401.7153,-5.01564E-05
401.8153,-5.01404E-05
401.9153,-5.012815E-05
402.0153,-5.01225E-05
402.1153,-5.010461E-05
402.2153,-5.011497E-05
402.3153,-5.007636E-05
402.4153,-5.005846E-05
402.5154,-5.009707E-05
402.6154,-5.006976E-05
402.7154,-5.003115E-05
402.8154,-5.003021E-05
402.9154,-5.003304E-05
403.0154,-5.003774E-05
403.1154,-5.002173E-05
403.2154,-4.999442E-05
403.3154,-4.998501E-05
403.4154,-4.999913E-05
403.5154,-4.995958E-05
403.6154,-4.997841E-05
403.7154,-4.998689E-05
403.8154,-4.995676E-05
403.9154,-4.997088E-05
404.0154,-4.990213E-05
404.1154,-4.991249E-05
404.2155,-4.994357E-05
404.3155,-4.989743E-05
404.4155,-4.990213E-05
404.5155,-4.986352E-05
404.6155,-4.983621E-05
404.7155,-4.98654E-05
404.8155,-4.98541E-05
404.9155,-4.985693E-05
405.0155,-4.987105E-05
405.1155,-4.985222E-05
405.2155,-4.983809E-05
405.3155,-4.983433E-05
405.4155,-4.980137E-05
405.5155,-4.975805E-05
405.6155,-4.980043E-05
405.7155,-4.978065E-05
405.8156,-4.974392E-05
405.9156,-4.974863E-05
406.0156,-4.971661E-05
406.1156,-4.973639E-05
406.2156,-4.975711E-05
406.3156,-4.971944E-05
406.4156,-4.969872E-05
406.5156,-4.970532E-05
406.6156,-4.970814E-05
406.7156,-4.968554E-05
406.8156,-4.970814E-05
406.9156,-4.968836E-05
407.0156,-4.96667E-05
407.1156,-4.966388E-05
407.2156,-4.966011E-05
407.3156,-4.962997E-05
407.4156,-4.964787E-05
407.5157,-4.963656E-05
407.6157,-4.96102E-05
407.7157,-4.961962E-05
407.8157,-4.960172E-05
407.9157,-4.958477E-05
408.0157,-4.958948E-05
408.1157,-4.958383E-05
408.2157,-4.956782E-05
408.3157,-4.956217E-05
408.4157,-4.954899E-05
408.5157,-4.953957E-05
408.6157,-4.957064E-05
408.7157,-4.95245E-05
408.8157,-4.950849E-05
408.9157,-4.951132E-05
409.0157,-4.950001E-05
409.1158,-4.949436E-05
409.2158,-4.948589E-05
409.3158,-4.946988E-05
409.4158,-4.946329E-05
409.5158,-4.948589E-05
409.6158,-4.945387E-05
409.7158,-4.943692E-05
409.8158,-4.946705E-05
409.9158,-4.943786E-05
410.0158,-4.942939E-05
410.1158,-4.943032E-05
410.2158,-4.939925E-05
410.3158,-4.938701E-05
410.4158,-4.941526E-05
410.5158,-4.93936E-05
410.6158,-4.937006E-05
410.7159,-4.938041E-05
410.8159,-4.936252E-05
410.9159,-4.933898E-05
411.0159,-4.934651E-05
411.1159,-4.934369E-05
411.2159,-4.936912E-05
411.3159,-4.937288E-05
411.4159,-4.932203E-05
411.5159,-4.93258E-05
411.6159,-4.932674E-05
411.7159,-4.931544E-05
411.8159,-4.929849E-05
411.9159,-4.927588E-05
412.0159,-4.927212E-05
412.1159,-4.924669E-05
412.2159,-4.922974E-05
412.3159,-4.924951E-05
412.416,-4.924763E-05
412.516,-4.92062E-05
412.616,-4.919395E-05
412.716,-4.92109E-05
412.816,-4.919678E-05
412.916,-4.920713E-05
413.016,-4.91836E-05
413.116,-4.915251E-05
413.216,-4.917229E-05
413.316,-4.915251E-05
413.416,-4.914216E-05
413.516,-4.912615E-05
413.616,-4.910731E-05
413.716,-4.913651E-05
413.816,-4.916664E-05
413.916,-4.912426E-05
414.0161,-4.908283E-05
414.1161,-4.908848E-05
414.2161,-4.907436E-05
414.3161,-4.906023E-05
414.4161,-4.909225E-05
414.5161,-4.906682E-05
414.6161,-4.902821E-05
414.7161,-4.906964E-05
414.8161,-4.903103E-05
414.9161,-4.902821E-05
415.0161,-4.907247E-05
415.1161,-4.902538E-05
415.2161,-4.902162E-05
415.3161,-4.901597E-05
415.4161,-4.90122E-05
415.5161,-4.899524E-05
415.6161,-4.898771E-05
415.7162,-4.895852E-05
415.8162,-4.897264E-05
415.9162,-4.896511E-05
416.0162,-4.895005E-05
416.1162,-4.893215E-05
416.2162,-4.894722E-05
416.3162,-4.894345E-05
416.4162,-4.892179E-05
416.5162,-4.893592E-05
416.6162,-4.893875E-05
416.7162,-4.890955E-05
416.8162,-4.889731E-05
416.9162,-4.891332E-05
417.0162,-4.889542E-05
417.1162,-4.886058E-05
417.2162,-4.887188E-05
417.3163,-4.88474E-05
417.4163,-4.883892E-05
417.5163,-4.888129E-05
417.6163,-4.882574E-05
417.7163,-4.878806E-05
417.8163,-4.883139E-05
417.9163,-4.881915E-05
418.0163,-4.88069E-05
418.1163,-4.880596E-05
418.2163,-4.878524E-05
418.3163,-4.88182E-05
418.4163,-4.883515E-05
418.5163,-4.8773E-05
418.6163,-4.874098E-05
418.7163,-4.877582E-05
418.8163,-4.87617E-05
418.9164,-4.873062E-05
419.0164,-4.871273E-05
419.1164,-4.869483E-05
419.2164,-4.86986E-05
419.3164,-4.872214E-05
419.4164,-4.871179E-05
419.5164,-4.865717E-05
419.6164,-4.867223E-05
419.7164,-4.867412E-05
419.8164,-4.866847E-05
419.9164,-4.867317E-05
420.0164,-4.863927E-05
420.1164,-4.86421E-05
420.2164,-4.86581E-05
420.3164,-4.865152E-05
420.4164,-4.862515E-05
420.5164,-4.862703E-05
420.6165,-4.86355E-05
420.7165,-4.861856E-05
420.8165,-4.857053E-05
420.9165,-4.859124E-05
421.0165,-4.85677E-05
421.1165,-4.854416E-05
421.2165,-4.857618E-05
421.3165,-4.856111E-05
421.4165,-4.853097E-05
421.5165,-4.855263E-05
421.6165,-4.85338E-05
421.7165,-4.851873E-05
421.8165,-4.852627E-05
421.9165,-4.850555E-05
422.0165,-4.847729E-05
422.1165,-4.85046E-05
422.2166,-4.849236E-05
422.3166,-4.848671E-05
422.4166,-4.84933E-05
422.5166,-4.845752E-05
422.6166,-4.846411E-05
422.7166,-4.847541E-05
422.8166,-4.844622E-05
422.9166,-4.843209E-05
423.0166,-4.842833E-05
423.1166,-4.84029E-05
423.2166,-4.837559E-05
423.3166,-4.840855E-05
423.4166,-4.83916E-05
423.5166,-4.835581E-05
423.6166,-4.840667E-05
423.7166,-4.83737E-05
423.8167,-4.833603E-05
423.9167,-4.837276E-05
424.0167,-4.835864E-05
424.1167,-4.834734E-05
424.2167,-4.835299E-05
424.3167,-4.832285E-05
424.4167,-4.829177E-05
424.5167,-4.831438E-05
424.6167,-4.831249E-05
424.7167,-4.830966E-05
424.8167,-4.830025E-05
424.9167,-4.8272E-05
425.0167,-4.824186E-05
425.1167,-4.827106E-05
425.2167,-4.82654E-05
425.3167,-4.825505E-05
425.4167,-4.82654E-05
425.5168,-4.823056E-05
425.6168,-4.821832E-05
425.7168,-4.822585E-05
425.8168,-4.822114E-05
425.9168,-4.819572E-05
426.0168,-4.820419E-05
426.1168,-4.820231E-05
426.2168,-4.817406E-05
426.3168,-4.820137E-05
426.4168,-4.817783E-05
426.5168,-4.815993E-05
426.6168,-4.815805E-05
426.7168,-4.814863E-05
426.8168,-4.813545E-05
426.9168,-4.813451E-05
427.0168,-4.812603E-05
427.1169,-4.809401E-05
427.2169,-4.811756E-05
427.3169,-4.809025E-05
427.4169,-4.809778E-05
427.5169,-4.810814E-05
427.6169,-4.805822E-05
427.7169,-4.804787E-05
427.8169,-4.804975E-05
427.9169,-4.805069E-05
428.0169,-4.807612E-05
428.1169,-4.806105E-05
428.2169,-4.803186E-05
428.3169,-4.801585E-05
428.4169,-4.802338E-05
428.5169,-4.800172E-05
428.6169,-4.804033E-05
428.7169,-4.800831E-05
428.817,-4.7981E-05
428.917,-4.798289E-05
429.017,-4.797441E-05
429.117,-4.797252E-05
429.217,-4.796688E-05
429.317,-4.792167E-05
429.417,-4.792826E-05
429.517,-4.794145E-05
429.617,-4.792732E-05
429.717,-4.79245E-05
429.817,-4.792167E-05
429.917,-4.789625E-05
430.017,-4.789154E-05
430.117,-4.788118E-05
430.217,-4.785293E-05
430.317,-4.785952E-05
430.4171,-4.786988E-05
430.5171,-4.782468E-05
430.6171,-4.784351E-05
430.7171,-4.783503E-05
430.8171,-4.779831E-05
430.9171,-4.779925E-05
431.0171,-4.781902E-05
431.1171,-4.779454E-05
431.2171,-4.778701E-05
431.3171,-4.77644E-05
431.4171,-4.775499E-05
431.5171,-4.780678E-05
431.6171,-4.776911E-05
431.7171,-4.772673E-05
431.8171,-4.773898E-05
431.9171,-4.770507E-05
432.0172,-4.768812E-05
432.1172,-4.771732E-05
432.2172,-4.769283E-05
432.3172,-4.767023E-05
432.4172,-4.767211E-05
432.5172,-4.764951E-05
432.6172,-4.765705E-05
432.7172,-4.769001E-05
432.8172,-4.765799E-05
432.9172,-4.763821E-05
433.0172,-4.762974E-05
433.1172,-4.760243E-05
433.2172,-4.761373E-05
433.3172,-4.760619E-05
433.4172,-4.760807E-05
433.5172,-4.759678E-05
433.6172,-4.761091E-05
433.7173,-4.757794E-05
433.8173,-4.75657E-05
433.9173,-4.757512E-05
434.0173,-4.756287E-05
434.1173,-4.756475E-05
434.2173,-4.754404E-05
434.3173,-4.751673E-05
434.4173,-4.751108E-05
434.5173,-4.752238E-05
434.6173,-4.752238E-05
434.7173,-4.750543E-05
434.8173,-4.749601E-05
434.9173,-4.747247E-05
435.0173,-4.746587E-05
435.1173,-4.749413E-05
435.2173,-4.746305E-05
435.3174,-4.744139E-05
435.4174,-4.744987E-05
435.5174,-4.744892E-05
435.6174,-4.744987E-05
435.7174,-4.743762E-05
435.8174,-4.740561E-05
435.9174,-4.740655E-05
436.0174,-4.741973E-05
436.1174,-4.73943E-05
436.2174,-4.739054E-05
436.3174,-4.739242E-05
436.4174,-4.738866E-05
436.5174,-4.740278E-05
436.6174,-4.738394E-05
436.7174,-4.737453E-05
436.8174,-4.73717E-05
436.9174,-4.735569E-05
437.0175,-4.736699E-05
437.1175,-4.735569E-05
437.2175,-4.734816E-05
437.3175,-4.733309E-05
437.4175,-4.730484E-05
437.5175,-4.729165E-05
437.6175,-4.731237E-05
437.7175,-4.728035E-05
437.8175,-4.723703E-05
437.9175,-4.72813E-05
438.0175,-4.725304E-05
438.1175,-4.723515E-05
438.2175,-4.723986E-05
438.3175,-4.723515E-05
438.4175,-4.723515E-05
438.5175,-4.722197E-05
438.6176,-4.720784E-05
438.7176,-4.719842E-05
438.8176,-4.721914E-05
438.9176,-4.72003E-05
439.0176,-4.718336E-05
439.1176,-4.717865E-05
439.2176,-4.716358E-05
439.3176,-4.717299E-05
439.4176,-4.718995E-05
439.5176,-4.717488E-05
439.6176,-4.71438E-05
439.7176,-4.716075E-05
439.8176,-4.716264E-05
439.9176,-4.712309E-05
440.0176,-4.715228E-05
440.1176,-4.711838E-05
440.2177,-4.711932E-05
440.3177,-4.715416E-05
440.4177,-4.711838E-05
440.5177,-4.709483E-05
440.6177,-4.711461E-05
440.7177,-4.708541E-05
440.8177,-4.7076E-05
440.9177,-4.711744E-05
441.0177,-4.707129E-05
441.1177,-4.706753E-05
441.2177,-4.708918E-05
441.3177,-4.704492E-05
441.4177,-4.702515E-05
441.5177,-4.704869E-05
441.6177,-4.703833E-05
441.7177,-4.702044E-05
441.8177,-4.701384E-05
441.9178,-4.701479E-05
442.0178,-4.699501E-05
442.1178,-4.70129E-05
442.2178,-4.6979E-05
442.3178,-4.697147E-05
442.4178,-4.697053E-05
442.5178,-4.694415E-05
442.6178,-4.695452E-05
442.7178,-4.697335E-05
442.8178,-4.693097E-05
442.9178,-4.692532E-05
443.0178,-4.693097E-05
443.1178,-4.694227E-05
443.2178,-4.690649E-05
443.3178,-4.690649E-05
443.4178,-4.689707E-05
443.5179,-4.689519E-05
443.6179,-4.690366E-05
443.7179,-4.688765E-05
443.8179,-4.68707E-05
443.9179,-4.685846E-05
444.0179,-4.687729E-05
444.1179,-4.686411E-05
444.2179,-4.68594E-05
444.3179,-4.682456E-05
444.4179,-4.685186E-05
444.5179,-4.685375E-05
444.6179,-4.685846E-05
444.7179,-4.682926E-05
444.8179,-4.679442E-05
444.9179,-4.680949E-05
445.0179,-4.67963E-05
445.118,-4.678783E-05
445.218,-4.678312E-05
445.318,-4.67737E-05
445.418,-4.67511E-05
445.518,-4.6769E-05
445.618,-4.675958E-05
445.718,-4.672662E-05
445.818,-4.67398E-05
445.918,-4.67511E-05
446.018,-4.670213E-05
446.118,-4.671908E-05
446.218,-4.669648E-05
446.318,-4.669931E-05
446.418,-4.672379E-05
446.518,-4.668895E-05
446.618,-4.665881E-05
446.718,-4.666634E-05
446.8181,-4.667765E-05
446.9181,-4.666823E-05
447.0181,-4.666823E-05
447.1181,-4.66607E-05
447.2181,-4.661738E-05
447.3181,-4.662773E-05
447.4181,-4.662114E-05
447.5181,-4.66089E-05
447.6181,-4.662397E-05
447.7181,-4.659101E-05
447.8181,-4.659572E-05
447.9181,-4.657688E-05
448.0181,-4.657217E-05
448.1181,-4.656087E-05
448.2181,-4.658724E-05
448.3181,-4.655428E-05
448.4182,-4.653733E-05
448.5182,-4.654675E-05
448.6182,-4.653545E-05
448.7182,-4.651378E-05
448.8182,-4.653168E-05
448.9182,-4.649966E-05
449.0182,-4.65006E-05
449.1182,-4.651096E-05
449.2182,-4.648177E-05
449.3182,-4.646952E-05
449.4182,-4.647424E-05
449.5182,-4.646011E-05
449.6182,-4.645728E-05
449.7182,-4.644881E-05
449.8182,-4.645728E-05
449.9182,-4.642244E-05
450.0182,-4.642809E-05
450.1183,-4.642149E-05
450.2183,-4.643374E-05
450.3183,-4.643939E-05
450.4183,-4.64262E-05
450.5183,-4.640831E-05
450.6183,-4.638948E-05
450.7183,-4.640549E-05
450.8183,-4.640172E-05
450.9183,-4.634145E-05
451.0183,-4.635275E-05
451.1183,-4.636217E-05
451.2183,-4.63697E-05
451.3183,-4.634804E-05
451.4183,-4.633862E-05
451.5183,-4.632544E-05
451.6183,-4.631131E-05
451.7184,-4.630095E-05
451.8184,-4.631508E-05
451.9184,-4.630001E-05
452.0184,-4.629342E-05
452.1184,-4.627458E-05
452.2184,-4.628494E-05
452.3184,-4.627647E-05
452.4184,-4.625669E-05
452.5184,-4.625952E-05
452.6184,-4.625481E-05
452.7184,-4.622844E-05
452.8184,-4.624916E-05
452.9184,-4.625104E-05
453.0184,-4.625481E-05
453.1184,-4.623127E-05
453.2184,-4.621996E-05
453.3185,-4.621525E-05
453.4185,-4.620961E-05
453.5185,-4.620113E-05
453.6185,-4.61823E-05
453.7185,-4.616346E-05
453.8185,-4.616629E-05
453.9185,-4.615593E-05
454.0185,-4.613992E-05
454.1185,-4.613804E-05
454.2185,-4.612673E-05
454.3185,-4.609848E-05
454.4185,-4.612014E-05
454.5185,-4.610884E-05
454.6185,-4.608907E-05
454.7185,-4.609472E-05
454.8185,-4.609283E-05
454.9185,-4.607776E-05
455.0186,-4.608247E-05
455.1186,-4.608153E-05
455.2186,-4.604669E-05
455.3186,-4.605328E-05
455.4186,-4.605045E-05
455.5186,-4.605799E-05
455.6186,-4.605893E-05
455.7186,-4.603256E-05
455.8186,-4.600431E-05
455.9186,-4.602785E-05
456.0186,-4.601938E-05
456.1186,-4.599395E-05
456.2186,-4.600431E-05
456.3186,-4.597229E-05
456.4186,-4.595345E-05
456.5186,-4.600713E-05
456.6187,-4.597041E-05
456.7187,-4.594215E-05
456.8187,-4.595345E-05
456.9187,-4.593933E-05
457.0187,-4.593274E-05
457.1187,-4.594404E-05
457.2187,-4.590637E-05
457.3187,-4.590825E-05
457.4187,-4.590731E-05
457.5187,-4.590449E-05
457.6187,-4.588565E-05
457.7187,-4.588471E-05
457.8187,-4.58687E-05
457.9187,-4.587435E-05
458.0187,-4.589695E-05
458.1187,-4.587529E-05
458.2188,-4.582538E-05
458.3188,-4.585646E-05
458.4188,-4.58395E-05
458.5188,-4.583574E-05
458.6188,-4.583668E-05
458.7188,-4.583385E-05
458.8188,-4.583857E-05
458.9188,-4.582915E-05
459.0188,-4.579995E-05
459.1188,-4.579336E-05
459.2188,-4.580749E-05
459.3188,-4.579713E-05
459.4188,-4.578017E-05
459.5188,-4.577264E-05
459.6188,-4.578677E-05
459.7188,-4.573686E-05
459.8188,-4.576699E-05
459.9189,-4.579807E-05
460.0189,-4.579901E-05
460.1189,-4.57491E-05
460.2189,-4.574062E-05
460.3189,-4.573968E-05
460.4189,-4.572838E-05
460.5189,-4.572461E-05
460.6189,-4.569071E-05
460.7189,-4.567847E-05
460.8189,-4.570955E-05
460.9189,-4.568506E-05
461.0189,-4.566717E-05
461.1189,-4.56813E-05
461.2189,-4.569165E-05
461.3189,-4.566058E-05
461.4189,-4.565399E-05
461.519,-4.566058E-05
461.619,-4.565022E-05
461.719,-4.565022E-05
461.819,-4.562008E-05
461.919,-4.560878E-05
462.019,-4.562668E-05
462.119,-4.560596E-05
462.219,-4.558335E-05
462.319,-4.557299E-05
462.419,-4.559089E-05
462.519,-4.558053E-05
462.619,-4.556829E-05
462.719,-4.555134E-05
462.819,-4.553062E-05
462.919,-4.554286E-05
463.019,-4.555604E-05
463.119,-4.555416E-05
463.2191,-4.551367E-05
463.3191,-4.551461E-05
463.4191,-4.551837E-05
463.5191,-4.552497E-05
463.6191,-4.552214E-05
463.7191,-4.54986E-05
463.8191,-4.548635E-05
463.9191,-4.549107E-05
464.0191,-4.549012E-05
464.1191,-4.546846E-05
464.2191,-4.546093E-05
464.3191,-4.545151E-05
464.4191,-4.54534E-05
464.5191,-4.544869E-05
464.6191,-4.541855E-05
464.7191,-4.541196E-05
464.8192,-4.543456E-05
464.9192,-4.542891E-05
465.0192,-4.541855E-05
465.1192,-4.541102E-05
465.2192,-4.538089E-05
465.3192,-4.537523E-05
465.4192,-4.539595E-05
465.5192,-4.538371E-05
465.6192,-4.535357E-05
465.7192,-4.534039E-05
465.8192,-4.536016E-05
465.9192,-4.534604E-05
466.0192,-4.536581E-05
466.1192,-4.535075E-05
466.2192,-4.533003E-05
466.3192,-4.53338E-05
466.4193,-4.531685E-05
466.5193,-4.531214E-05
466.6193,-4.531402E-05
466.7193,-4.530742E-05
466.8193,-4.529707E-05
466.9193,-4.527258E-05
467.0193,-4.528859E-05
467.1193,-4.527164E-05
467.2193,-4.526222E-05
467.3193,-4.525752E-05
467.4193,-4.525186E-05
467.5193,-4.525469E-05
467.6193,-4.522832E-05
467.7193,-4.521137E-05
467.8193,-4.523209E-05
467.9193,-4.522173E-05
468.0193,-4.521984E-05
468.1194,-4.521984E-05
468.2194,-4.519725E-05
468.3194,-4.517558E-05
468.4194,-4.518312E-05
468.5194,-4.520196E-05
468.6194,-4.51737E-05
468.7194,-4.518029E-05
468.8194,-4.516052E-05
468.9194,-4.513132E-05
469.0194,-4.514545E-05
469.1194,-4.512473E-05
469.2194,-4.510872E-05
469.3194,-4.513509E-05
469.4194,-4.51172E-05
469.5194,-4.509554E-05
469.6194,-4.512002E-05
469.7195,-4.508895E-05
469.8195,-4.507105E-05
469.9195,-4.510684E-05
470.0195,-4.509836E-05
470.1195,-4.507199E-05
470.2195,-4.508047E-05
470.3195,-4.507388E-05
470.4195,-4.508141E-05
470.5195,-4.507858E-05
470.6195,-4.50541E-05
470.7195,-4.505127E-05
470.8195,-4.503903E-05
470.9195,-4.503621E-05
471.0195,-4.50202E-05
471.1195,-4.500325E-05
471.2195,-4.501172E-05
471.3195,-4.498159E-05
471.4196,-4.498347E-05
471.5196,-4.499007E-05
471.6196,-4.495616E-05
471.7196,-4.495334E-05
471.8196,-4.494486E-05
471.9196,-4.49684E-05
472.0196,-4.492696E-05
472.1196,-4.494392E-05
472.2196,-4.494769E-05
472.3196,-4.492038E-05
472.4196,-4.494957E-05
472.5196,-4.491755E-05
472.6196,-4.490343E-05
472.7196,-4.493638E-05
472.8196,-4.492131E-05
472.9196,-4.490908E-05
473.0197,-4.491567E-05
473.1197,-4.489495E-05
473.2197,-4.490719E-05
473.3197,-4.489212E-05
473.4197,-4.486293E-05
473.5197,-4.484786E-05
473.6197,-4.48827E-05
473.7197,-4.484409E-05
473.8197,-4.483468E-05
473.9197,-4.482808E-05
474.0197,-4.482149E-05
474.1197,-4.482149E-05
474.2197,-4.483939E-05
474.3197,-4.480643E-05
474.4197,-4.479795E-05
474.5197,-4.480266E-05
474.6198,-4.48149E-05
474.7198,-4.478288E-05
474.8198,-4.478571E-05
474.9198,-4.477252E-05
475.0198,-4.475369E-05
475.1198,-4.477441E-05
475.2198,-4.473768E-05
475.3198,-4.474898E-05
475.4198,-4.476217E-05
475.5198,-4.474239E-05
475.6198,-4.47358E-05
475.7198,-4.472355E-05
475.8198,-4.471131E-05
475.9198,-4.469907E-05
476.0198,-4.474333E-05
476.1198,-4.471979E-05
476.2198,-4.469248E-05
476.3199,-4.466611E-05
476.4199,-4.467176E-05
476.5199,-4.467835E-05
476.6199,-4.467929E-05
476.7199,-4.466234E-05
476.8199,-4.465293E-05
476.9199,-4.46501E-05
477.0199,-4.465481E-05
477.1199,-4.464162E-05
477.2199,-4.462844E-05
477.3199,-4.46388E-05
477.4199,-4.462185E-05
477.5199,-4.459736E-05
477.6199,-4.461997E-05
477.7199,-4.460961E-05
477.8199,-4.459265E-05
477.92,-4.461243E-05
478.02,-4.458512E-05
478.12,-4.45757E-05
478.22,-4.458983E-05
478.32,-4.455687E-05
478.42,-4.457476E-05
478.52,-4.457193E-05
478.62,-4.455122E-05
478.72,-4.45418E-05
478.82,-4.456252E-05
478.92,-4.454274E-05
479.02,-4.453238E-05
479.12,-4.453615E-05
479.22,-4.451638E-05
479.32,-4.450413E-05
479.42,-4.452485E-05
479.5201,-4.450978E-05
479.6201,-4.449566E-05
479.7201,-4.449471E-05
479.8201,-4.449754E-05
479.9201,-4.447117E-05
480.0201,-4.448247E-05
480.1201,-4.446081E-05
480.2201,-4.442973E-05
480.3201,-4.445422E-05
480.4201,-4.445045E-05
480.5201,-4.443821E-05
480.6201,-4.44335E-05
480.7201,-4.441184E-05
480.8201,-4.442031E-05
480.9201,-4.444197E-05
481.0201,-4.441373E-05
481.1201,-4.43996E-05
481.2202,-4.439583E-05
481.3202,-4.438453E-05
481.4202,-4.439772E-05
481.5202,-4.439018E-05
481.6202,-4.435534E-05
481.7202,-4.439018E-05
481.8202,-4.440431E-05
481.9202,-4.440431E-05
482.0202,-4.435911E-05
482.1202,-4.436381E-05
482.2202,-4.436852E-05
482.3202,-4.433933E-05
482.4202,-4.433839E-05
482.5202,-4.431578E-05
482.6202,-4.431484E-05
482.7202,-4.430731E-05
482.8203,-4.427999E-05
482.9203,-4.428282E-05
483.0203,-4.428565E-05
483.1203,-4.427341E-05
483.2203,-4.425363E-05
483.3203,-4.427623E-05
483.4203,-4.425175E-05
483.5203,-4.424986E-05
483.6203,-4.424892E-05
483.7203,-4.423291E-05
483.8203,-4.422726E-05
483.9203,-4.42395E-05
484.0203,-4.423573E-05
484.1203,-4.420278E-05
484.2203,-4.421973E-05
484.3203,-4.420654E-05
484.4203,-4.418489E-05
484.5204,-4.420372E-05
484.6204,-4.420842E-05
484.7204,-4.42056E-05
484.8204,-4.418394E-05
484.9204,-4.418206E-05
485.0204,-4.417359E-05
485.1204,-4.417359E-05
485.2204,-4.415663E-05
485.3204,-4.413968E-05
485.4204,-4.414721E-05
485.5204,-4.415192E-05
485.6204,-4.414816E-05
485.7204,-4.411049E-05
485.8204,-4.411237E-05
485.9204,-4.411896E-05
486.0204,-4.41199E-05
486.1205,-4.410484E-05
486.2205,-4.410107E-05
486.3205,-4.406246E-05
486.4205,-4.407753E-05
486.5205,-4.408412E-05
486.6205,-4.407847E-05
486.7205,-4.407847E-05
486.8205,-4.406905E-05
486.9205,-4.404174E-05
487.0205,-4.405022E-05
487.1205,-4.405116E-05
487.2205,-4.40408E-05
487.3205,-4.405398E-05
487.4205,-4.401443E-05
487.5205,-4.401161E-05
487.6205,-4.401161E-05
487.7206,-4.400784E-05
487.8206,-4.397865E-05
487.9206,-4.401443E-05
488.0206,-4.399559E-05
488.1206,-4.397111E-05
488.2206,-4.399089E-05
488.3206,-4.396263E-05
488.4206,-4.394097E-05
488.5206,-4.397676E-05
488.6206,-4.395228E-05
488.7206,-4.392779E-05
488.8206,-4.394474E-05
488.9206,-4.394757E-05
489.0206,-4.392214E-05
489.1206,-4.395887E-05
489.2206,-4.393627E-05
489.3206,-4.391554E-05
489.4207,-4.390048E-05
489.5207,-4.389012E-05
489.6207,-4.389201E-05
489.7207,-4.390519E-05
489.8207,-4.389954E-05
489.9207,-4.388353E-05
490.0207,-4.388824E-05
490.1207,-4.383644E-05
490.2207,-4.386564E-05
490.3207,-4.389389E-05
490.4207,-4.385245E-05
490.5207,-4.384586E-05
490.6207,-4.383456E-05
490.7207,-4.383739E-05
490.8207,-4.382703E-05
490.9207,-4.38129E-05
491.0208,-4.381196E-05
491.1208,-4.383268E-05
491.2208,-4.379877E-05
491.3208,-4.37903E-05
491.4208,-4.378088E-05
491.5208,-4.379972E-05
491.6208,-4.380442E-05
491.7208,-4.375546E-05
491.8208,-4.375734E-05
491.9208,-4.379877E-05
492.0208,-4.37724E-05
492.1208,-4.375451E-05
492.2208,-4.379218E-05
492.3208,-4.376582E-05
492.4208,-4.373097E-05
492.5208,-4.375451E-05
492.6208,-4.371778E-05
492.7209,-4.370272E-05
492.8209,-4.372344E-05
492.9209,-4.369047E-05
493.0209,-4.36933E-05
493.1209,-4.371213E-05
493.2209,-4.368577E-05
493.3209,-4.366882E-05
493.4209,-4.368953E-05
493.5209,-4.366882E-05
493.6209,-4.366882E-05
493.7209,-4.366504E-05
493.8209,-4.362078E-05
493.9209,-4.362078E-05
494.0209,-4.36707E-05
494.1209,-4.366222E-05
494.2209,-4.361796E-05
494.321,-4.363491E-05
494.421,-4.362173E-05
494.521,-4.362926E-05
494.621,-4.359253E-05
494.721,-4.357276E-05
494.821,-4.357088E-05
494.921,-4.360289E-05
495.021,-4.357464E-05
495.121,-4.355581E-05
495.221,-4.356805E-05
495.321,-4.356052E-05
495.421,-4.355958E-05
495.521,-4.35624E-05
495.621,-4.351155E-05
495.721,-4.354262E-05
495.821,-4.358218E-05
495.9211,-4.353603E-05
496.0211,-4.35332E-05
496.1211,-4.354356E-05
496.2211,-4.35219E-05
496.3211,-4.351437E-05
496.4211,-4.351531E-05
496.5211,-4.351343E-05
496.6211,-4.349554E-05
496.7211,-4.351343E-05
496.8211,-4.348894E-05
496.9211,-4.346728E-05
497.0211,-4.347953E-05
497.1211,-4.347199E-05
497.2211,-4.347011E-05
497.3211,-4.34428E-05
497.4211,-4.342208E-05
497.5211,-4.342773E-05
497.6212,-4.34315E-05
497.7212,-4.340325E-05
497.8212,-4.341172E-05
497.9212,-4.341361E-05
498.0212,-4.342491E-05
498.1212,-4.340701E-05
498.2212,-4.337217E-05
498.3212,-4.337217E-05
498.4212,-4.33863E-05
498.5212,-4.33571E-05
498.6212,-4.336652E-05
498.7212,-4.336181E-05
498.8212,-4.33345E-05
498.9212,-4.333827E-05
499.0212,-4.334015E-05
499.1212,-4.333262E-05
499.2213,-4.332602E-05
499.3213,-4.332131E-05
499.4213,-4.332037E-05
499.5213,-4.330531E-05
499.6213,-4.328647E-05
499.7213,-4.331566E-05
499.8213,-4.332885E-05
499.9213,-4.328647E-05
500.0213,-4.328176E-05
500.1213,-4.332131E-05
500.2213,-4.333262E-05
500.3213,-4.329212E-05
500.4213,-4.324598E-05
500.5213,-4.326481E-05
500.6213,-4.326575E-05
500.7213,-4.327329E-05
500.8214,-4.322432E-05
500.9214,-4.321584E-05
501.0214,-4.324598E-05
501.1214,-4.323185E-05
501.2214,-4.321679E-05
501.3214,-4.322432E-05
501.4214,-4.32036E-05
501.5214,-4.319324E-05
501.6214,-4.322243E-05
501.7214,-4.319324E-05
501.8214,-4.316499E-05
501.9214,-4.316875E-05
502.0214,-4.316781E-05
502.1214,-4.317064E-05
502.2214,-4.317723E-05
502.3214,-4.315463E-05
502.4214,-4.31405E-05
502.5215,-4.314521E-05
502.6215,-4.314144E-05
502.7215,-4.313768E-05
502.8215,-4.312261E-05
502.9215,-4.311602E-05
503.0215,-4.310754E-05
503.1215,-4.310943E-05
503.2215,-4.311696E-05
503.3215,-4.309436E-05
503.4215,-4.309907E-05
503.5215,-4.305951E-05
503.6215,-4.306705E-05
503.7215,-4.307552E-05
503.8215,-4.306611E-05
503.9215,-4.305575E-05
504.0215,-4.305386E-05
504.1216,-4.30209E-05
504.2216,-4.30388E-05
504.3216,-4.30388E-05
504.4216,-4.303032E-05
504.5216,-4.302655E-05
504.6216,-4.300395E-05
504.7216,-4.300395E-05
504.8216,-4.299454E-05
504.9216,-4.301902E-05
505.0216,-4.297853E-05
505.1216,-4.298135E-05
505.2216,-4.300489E-05
505.3216,-4.29983E-05
505.4216,-4.297664E-05
505.5216,-4.296346E-05
505.6216,-4.291637E-05
505.7216,-4.297005E-05
505.8217,-4.296629E-05
505.9217,-4.292391E-05
506.0217,-4.291166E-05
506.1217,-4.296534E-05
506.2217,-4.293521E-05
506.3217,-4.289471E-05
506.4217,-4.29126E-05
506.5217,-4.291637E-05
506.6217,-4.289566E-05
506.7217,-4.28966E-05
506.8217,-4.287776E-05
506.9217,-4.285798E-05
507.0217,-4.285422E-05
507.1217,-4.28514E-05
507.2217,-4.288153E-05
507.3217,-4.286175E-05
507.4218,-4.283162E-05
507.5218,-4.284386E-05
507.6218,-4.285422E-05
507.7218,-4.282409E-05
507.8218,-4.281372E-05
507.9218,-4.282031E-05
508.0218,-4.280619E-05
508.1218,-4.281466E-05
508.2218,-4.280902E-05
508.3218,-4.277417E-05
508.4218,-4.278547E-05
508.5218,-4.278547E-05
508.6218,-4.278547E-05
508.7218,-4.276287E-05
508.8218,-4.275534E-05
508.9218,-4.275157E-05
509.0219,-4.276098E-05
509.1219,-4.275722E-05
509.2219,-4.274498E-05
509.3219,-4.272802E-05
509.4219,-4.271578E-05
509.5219,-4.270448E-05
509.6219,-4.271767E-05
509.7219,-4.272897E-05
509.8219,-4.270542E-05
509.9219,-4.270071E-05
510.0219,-4.268565E-05
510.1219,-4.268941E-05
510.2219,-4.271013E-05
510.3219,-4.268565E-05
510.4219,-4.269789E-05
510.5219,-4.268377E-05
510.6219,-4.267246E-05
510.722,-4.264421E-05
510.822,-4.26169E-05
510.922,-4.262538E-05
511.022,-4.266681E-05
511.122,-4.26122E-05
511.222,-4.262443E-05
511.322,-4.26508E-05
511.422,-4.261596E-05
511.522,-4.259712E-05
511.622,-4.260937E-05
511.722,-4.25943E-05
511.822,-4.259901E-05
511.922,-4.2583E-05
512.022,-4.255663E-05
512.122,-4.258677E-05
512.222,-4.25717E-05
512.322,-4.255663E-05
512.4219,-4.254156E-05
512.5219,-4.255192E-05
512.6219,-4.25604E-05
512.7219,-4.255852E-05
512.8218,-4.253121E-05
512.9218,-4.253874E-05
513.0218,-4.253968E-05
513.1218,-4.25199E-05
513.2217,-4.253403E-05
513.3217,-4.249824E-05
513.4217,-4.247564E-05
513.5217,-4.251802E-05
513.6216,-4.247941E-05
513.7216,-4.248977E-05
513.8216,-4.248789E-05
513.9216,-4.248035E-05
514.0215,-4.246811E-05
514.1215,-4.248412E-05
514.2215,-4.247658E-05
514.3215,-4.243326E-05
514.4214,-4.243232E-05
514.5214,-4.243985E-05
514.6214,-4.243985E-05
514.7214,-4.24408E-05
514.8214,-4.240972E-05
514.9213,-4.24116E-05
515.0213,-4.243044E-05
515.1213,-4.240689E-05
515.2213,-4.24003E-05
515.3212,-4.239371E-05
515.4212,-4.238241E-05
515.5212,-4.238994E-05
515.6212,-4.240219E-05
515.7211,-4.238335E-05
515.8211,-4.237488E-05
515.9211,-4.241726E-05
516.0211,-4.240784E-05
516.121,-4.237299E-05
516.221,-4.237299E-05
516.321,-4.236263E-05
516.421,-4.236169E-05
516.5209,-4.237582E-05
516.6209,-4.235416E-05
516.7209,-4.233815E-05
516.8209,-4.233156E-05
516.9208,-4.233627E-05
517.0208,-4.230896E-05
517.1208,-4.232402E-05
517.2208,-4.229765E-05
517.3207,-4.227506E-05
517.4207,-4.2292E-05
517.5207,-4.225622E-05
517.6207,-4.226093E-05
517.7206,-4.2292E-05
517.8206,-4.226564E-05
517.9206,-4.225622E-05
518.0206,-4.225716E-05
518.1205,-4.225151E-05
518.2205,-4.224774E-05
518.3205,-4.222796E-05
518.4205,-4.222514E-05
518.5204,-4.223079E-05
518.6204,-4.222231E-05
518.7204,-4.224303E-05
518.8204,-4.218935E-05
518.9203,-4.219877E-05
519.0203,-4.220065E-05
519.1203,-4.219312E-05
519.2203,-4.218559E-05
519.3203,-4.218182E-05
519.4202,-4.217052E-05
519.5202,-4.217994E-05
519.6202,-4.218465E-05
519.7202,-4.216487E-05
519.8201,-4.215545E-05
519.9201,-4.216582E-05
520.0201,-4.215545E-05
520.1201,-4.212344E-05
520.22,-4.21385E-05
520.32,-4.212814E-05
520.42,-4.21046E-05
520.52,-4.210554E-05
520.6199,-4.209424E-05
520.7199,-4.210083E-05
520.8199,-4.212438E-05
520.9199,-4.209518E-05
521.0198,-4.207917E-05
521.1198,-4.211025E-05
521.2198,-4.209518E-05
521.3198,-4.20707E-05
521.4197,-4.20707E-05
521.5197,-4.206128E-05
521.6197,-4.205751E-05
521.7197,-4.205751E-05
521.8196,-4.204621E-05
521.9196,-4.202455E-05
522.0196,-4.203962E-05
522.1196,-4.203303E-05
522.2195,-4.20302E-05
522.3195,-4.204433E-05
522.4195,-4.201043E-05
522.5195,-4.200289E-05
522.6194,-4.20189E-05
522.7194,-4.199065E-05
522.8194,-4.199065E-05
522.9194,-4.201231E-05
523.0193,-4.201702E-05
523.1193,-4.198877E-05
523.2193,-4.196522E-05
523.3193,-4.194733E-05
523.4193,-4.193508E-05
523.5192,-4.197558E-05
523.6192,-4.196334E-05
523.7192,-4.19106E-05
523.8192,-4.194074E-05
523.9191,-4.194074E-05
524.0191,-4.191155E-05
524.1191,-4.193132E-05
524.2191,-4.189177E-05
524.319,-4.189082E-05
524.419,-4.193508E-05
524.519,-4.192378E-05
524.619,-4.190589E-05
524.7189,-4.188517E-05
524.8189,-4.187764E-05
524.9189,-4.187764E-05
525.0189,-4.188424E-05
525.1188,-4.187482E-05
525.2188,-4.184939E-05
525.3188,-4.186822E-05
525.4188,-4.185127E-05
525.5187,-4.183244E-05
525.6187,-4.182961E-05
525.7187,-4.184374E-05
525.8187,-4.185033E-05
525.9186,-4.184845E-05
526.0186,-4.181737E-05
526.1186,-4.180984E-05
526.2186,-4.182773E-05
526.3185,-4.182679E-05
526.4185,-4.177311E-05
526.5185,-4.178724E-05
526.6185,-4.178347E-05
526.7184,-4.178252E-05
526.8184,-4.178724E-05
526.9184,-4.178252E-05
527.0184,-4.176463E-05
527.1183,-4.176934E-05
527.2183,-4.175145E-05
527.3183,-4.175239E-05
527.4183,-4.175616E-05
527.5182,-4.172979E-05
527.6182,-4.175427E-05
527.7182,-4.175616E-05
527.8182,-4.172414E-05
527.9182,-4.172037E-05
528.0181,-4.173732E-05
528.1181,-4.173732E-05
528.2181,-4.172225E-05
528.3181,-4.169871E-05
528.418,-4.170342E-05
528.518,-4.169777E-05
528.618,-4.170248E-05
528.718,-4.169966E-05
528.8179,-4.167423E-05
528.9179,-4.16827E-05
529.0179,-4.168082E-05
529.1179,-4.167329E-05
529.2178,-4.167705E-05
529.3178,-4.167423E-05
529.4178,-4.164786E-05
529.5178,-4.163844E-05
529.6177,-4.16375E-05
529.7177,-4.162902E-05
529.8177,-4.164127E-05
529.9177,-4.161867E-05
530.0176,-4.162997E-05
530.1176,-4.161772E-05
530.2176,-4.16262E-05
530.3176,-4.162244E-05
530.4175,-4.159794E-05
530.5175,-4.158476E-05
530.6175,-4.15584E-05
530.7175,-4.16036E-05
530.8174,-4.160454E-05
530.9174,-4.158006E-05
531.0174,-4.155934E-05
531.1174,-4.157535E-05
531.2173,-4.157817E-05
531.3173,-4.154521E-05
531.4173,-4.153768E-05
531.5173,-4.153391E-05
531.6172,-4.154804E-05
531.7172,-4.153768E-05
531.8172,-4.151413E-05
531.9172,-4.153109E-05
532.0172,-4.153203E-05
532.1171,-4.149153E-05
532.2171,-4.150848E-05
532.3171,-4.15405E-05
532.4171,-4.152732E-05
532.517,-4.150566E-05
532.617,-4.149906E-05
532.717,-4.148494E-05
532.817,-4.147552E-05
532.9169,-4.148871E-05
533.0169,-4.147741E-05
533.1169,-4.145198E-05
533.2169,-4.145574E-05
533.3168,-4.144916E-05
533.4168,-4.142749E-05
533.5168,-4.145574E-05
533.6168,-4.141996E-05
533.7167,-4.141808E-05
533.8167,-4.145009E-05
533.9167,-4.144539E-05
534.0167,-4.142373E-05
534.1166,-4.140678E-05
534.2166,-4.140678E-05
534.3166,-4.140583E-05
534.4166,-4.141525E-05
534.5165,-4.137852E-05
534.6165,-4.138605E-05
534.7165,-4.137947E-05
534.8165,-4.138135E-05
534.9164,-4.136346E-05
535.0164,-4.135592E-05
535.1164,-4.135216E-05
535.2164,-4.136534E-05
535.3163,-4.134744E-05
535.4163,-4.13644E-05
535.5163,-4.135404E-05
535.6163,-4.134462E-05
535.7162,-4.13305E-05
535.8162,-4.130413E-05
535.9162,-4.131825E-05
536.0162,-4.134179E-05
536.1161,-4.133144E-05
536.2161,-4.129E-05
536.3161,-4.130224E-05
536.4161,-4.131448E-05
536.5161,-4.129565E-05
536.616,-4.128529E-05
536.716,-4.129E-05
536.816,-4.129188E-05
536.916,-4.126552E-05
537.0159,-4.125516E-05
537.1159,-4.125422E-05
537.2159,-4.128812E-05
537.3159,-4.123161E-05
537.4158,-4.122879E-05
537.5158,-4.126269E-05
537.6158,-4.125516E-05
537.7158,-4.122408E-05
537.8157,-4.122502E-05
537.9157,-4.122219E-05
538.0157,-4.124103E-05
538.1157,-4.122125E-05
538.2156,-4.119583E-05
538.3156,-4.118359E-05
538.4156,-4.12043E-05
538.5156,-4.121466E-05
538.6155,-4.118547E-05
538.7155,-4.117417E-05
538.8155,-4.116286E-05
538.9155,-4.118829E-05
539.0154,-4.119112E-05
539.1154,-4.11704E-05
539.2154,-4.116004E-05
539.3154,-4.117134E-05
539.4153,-4.115345E-05
539.5153,-4.114027E-05
539.6153,-4.112049E-05
539.7153,-4.113273E-05
539.8152,-4.111295E-05
539.9152,-4.113838E-05
540.0152,-4.110071E-05
540.1152,-4.108753E-05
540.2151,-4.109977E-05
540.3151,-4.109883E-05
540.4151,-4.107905E-05
540.5151,-4.108847E-05
540.6151,-4.105174E-05
540.715,-4.107058E-05
540.815,-4.107623E-05
540.915,-4.10621E-05
541.015,-4.106492E-05
541.1149,-4.105174E-05
541.2149,-4.105457E-05
541.3149,-4.100466E-05
541.4149,-4.104421E-05
541.5148,-4.104703E-05
541.6148,-4.10395E-05
541.7148,-4.101972E-05
541.8148,-4.100654E-05
541.9147,-4.101407E-05
542.0147,-4.101784E-05
542.1147,-4.101031E-05
542.2147,-4.098582E-05
542.3146,-4.097829E-05
542.4146,-4.100936E-05
542.5146,-4.096322E-05
542.6146,-4.096134E-05
542.7145,-4.099241E-05
542.8145,-4.098111E-05
542.9145,-4.095663E-05
543.0145,-4.096228E-05
543.1144,-4.09604E-05
543.2144,-4.097358E-05
543.3144,-4.097358E-05
543.4144,-4.095286E-05
543.5143,-4.09538E-05
543.6143,-4.096793E-05
543.7143,-4.094156E-05
543.8143,-4.093685E-05
543.9142,-4.094627E-05
544.0142,-4.090954E-05
544.1142,-4.092555E-05
544.2142,-4.092084E-05
544.3141,-4.08973E-05
544.4141,-4.089636E-05
544.5141,-4.088317E-05
544.6141,-4.089448E-05
544.7141,-4.086622E-05
544.814,-4.089071E-05
544.914,-4.085021E-05
545.014,-4.086245E-05
545.114,-4.087187E-05
545.2139,-4.086622E-05
545.3139,-4.085304E-05
545.4139,-4.083703E-05
545.5139,-4.083514E-05
545.6138,-4.082196E-05
545.7138,-4.080501E-05
545.8138,-4.083138E-05
545.9138,-4.08229E-05
546.0137,-4.082384E-05
546.1137,-4.082573E-05
546.2137,-4.080219E-05
546.3137,-4.079277E-05
546.4136,-4.080219E-05
546.5136,-4.078523E-05
546.6136,-4.074756E-05
546.7136,-4.081819E-05
546.8135,-4.07711E-05
546.9135,-4.074285E-05
547.0135,-4.080689E-05
547.1135,-4.079936E-05
547.2134,-4.075792E-05
547.3134,-4.076263E-05
547.4134,-4.073061E-05
547.5134,-4.074568E-05
547.6133,-4.076263E-05
547.7133,-4.072025E-05
547.8133,-4.070801E-05
547.9133,-4.071083E-05
548.0132,-4.070519E-05
548.1132,-4.070142E-05
548.2132,-4.070613E-05
548.3132,-4.067599E-05
548.4131,-4.065904E-05
548.5131,-4.067882E-05
548.6131,-4.068259E-05
548.7131,-4.06694E-05
548.813,-4.067505E-05
548.913,-4.065245E-05
549.013,-4.06355E-05
549.113,-4.066657E-05
549.213,-4.065056E-05
549.3129,-4.064115E-05
549.4129,-4.064586E-05
549.5129,-4.062232E-05
549.6129,-4.06289E-05
549.7128,-4.064962E-05
549.8128,-4.060254E-05
549.9128,-4.06176E-05
550.0128,-4.064397E-05
550.1127,-4.065245E-05
550.2127,-4.061007E-05
550.3127,-4.059689E-05
550.4127,-4.060536E-05
550.5126,-4.060065E-05
550.6126,-4.058182E-05
550.7126,-4.056958E-05
550.8126,-4.056299E-05
550.9125,-4.056581E-05
551.0125,-4.056863E-05
551.1125,-4.054697E-05
551.2125,-4.054603E-05
551.3124,-4.055922E-05
551.4124,-4.055263E-05
551.5124,-4.054603E-05
551.6124,-4.054132E-05
551.7123,-4.054321E-05
551.8123,-4.053567E-05
551.9123,-4.051872E-05
552.0123,-4.052061E-05
552.1122,-4.051872E-05
552.2122,-4.053285E-05
552.3122,-4.053191E-05
552.4122,-4.049612E-05
552.5121,-4.051872E-05
552.6121,-4.051778E-05
552.7121,-4.04933E-05
552.8121,-4.049236E-05
552.912,-4.049612E-05
553.012,-4.048482E-05
553.112,-4.046975E-05
553.212,-4.045468E-05
553.312,-4.04594E-05
553.4119,-4.049236E-05
553.5119,-4.044433E-05
553.6119,-4.045092E-05
553.7119,-4.047728E-05
553.8118,-4.046787E-05
553.9118,-4.04641E-05
554.0118,-4.044715E-05
554.1118,-4.041325E-05
554.2117,-4.041419E-05
554.3117,-4.04368E-05
554.4117,-4.041607E-05
554.5117,-4.0385E-05
554.6116,-4.039347E-05
554.7116,-4.040101E-05
554.8116,-4.038594E-05
554.9116,-4.039724E-05
555.0115,-4.036239E-05
555.1115,-4.037181E-05
555.2115,-4.038876E-05
555.3115,-4.037652E-05
555.4114,-4.036051E-05
555.5114,-4.036993E-05
555.6114,-4.036805E-05
555.7114,-4.032849E-05
555.8113,-4.032567E-05
555.9113,-4.033791E-05
556.0113,-4.036051E-05
556.1113,-4.031437E-05
556.2112,-4.03332E-05
556.3112,-4.032944E-05
556.4112,-4.033602E-05
556.5112,-4.031908E-05
556.6111,-4.028235E-05
556.7111,-4.030966E-05
556.8111,-4.032002E-05
556.9111,-4.029176E-05
557.011,-4.027764E-05
557.111,-4.029459E-05
557.211,-4.026257E-05
557.311,-4.025033E-05
557.4109,-4.027293E-05
557.5109,-4.02654E-05
557.6109,-4.02814E-05
557.7109,-4.027011E-05
557.8109,-4.022773E-05
557.9108,-4.02541E-05
558.0108,-4.026445E-05
558.1108,-4.024468E-05
558.2108,-4.022396E-05
558.3107,-4.023149E-05
558.4107,-4.023714E-05
558.5107,-4.020513E-05
558.6107,-4.022302E-05
558.7106,-4.019383E-05
558.8106,-4.0191E-05
558.9106,-4.022208E-05
559.0106,-4.020889E-05
559.1105,-4.017499E-05
559.2105,-4.01797E-05
559.3105,-4.01684E-05
559.4105,-4.016746E-05
559.5104,-4.016934E-05
559.6104,-4.015239E-05
559.7104,-4.012226E-05
559.8104,-4.016369E-05
559.9103,-4.016181E-05
560.0103,-4.013167E-05
560.1103,-4.012979E-05
560.2103,-4.014109E-05
560.3102,-4.013073E-05
560.4102,-4.010154E-05
560.5102,-4.010813E-05
560.6102,-4.011189E-05
560.7101,-4.009024E-05
560.8101,-4.009306E-05
560.9101,-4.008929E-05
561.0101,-4.007799E-05
561.11,-4.010059E-05
561.21,-4.00714E-05
561.31,-4.005163E-05
561.41,-4.008176E-05
561.5099,-4.007705E-05
561.6099,-4.006387E-05
561.7099,-4.005539E-05
561.8099,-4.00488E-05
561.9099,-4.005068E-05
562.0098,-4.006293E-05
562.1098,-3.998099E-05
562.2098,-4.005163E-05
562.3098,-4.005539E-05
562.4097,-4.002149E-05
562.5097,-4.000736E-05
562.6097,-4.002055E-05
562.7097,-4.002149E-05
562.8096,-3.999889E-05
562.9096,-4.000642E-05
563.0096,-3.998099E-05
563.1096,-3.99857E-05
563.2095,-4.001207E-05
563.3095,-3.997723E-05
563.4095,-3.996216E-05
563.5095,-4.000548E-05
563.6094,-3.999136E-05
563.7094,-3.995745E-05
563.8094,-3.995651E-05
563.9094,-3.994898E-05
564.0093,-3.992261E-05
564.1093,-3.992825E-05
564.2093,-3.991978E-05
564.3093,-3.992261E-05
564.4092,-3.996122E-05
564.5092,-3.990095E-05
564.6092,-3.988965E-05
564.7092,-3.992825E-05
564.8091,-3.990472E-05
564.9091,-3.989059E-05
565.0091,-3.988682E-05
565.1091,-3.987364E-05
565.209,-3.989153E-05
565.309,-3.989341E-05
565.409,-3.987552E-05
565.509,-3.984068E-05
565.6089,-3.987081E-05
565.7089,-3.985951E-05
565.8089,-3.985857E-05
565.9089,-3.985009E-05
566.0089,-3.982938E-05
566.1088,-3.982843E-05
566.2088,-3.98548E-05
566.3088,-3.981902E-05
566.4088,-3.98209E-05
566.5087,-3.980866E-05
566.6087,-3.982655E-05
566.7087,-3.980866E-05
566.8087,-3.981902E-05
566.9086,-3.979265E-05
567.0086,-3.977947E-05
567.1086,-3.981431E-05
567.2086,-3.978794E-05
567.3085,-3.97757E-05
567.4085,-3.980678E-05
567.5085,-3.978135E-05
567.6085,-3.978323E-05
567.7084,-3.977381E-05
567.8084,-3.972955E-05
567.9084,-3.97531E-05
568.0084,-3.975027E-05
568.1083,-3.975498E-05
568.2083,-3.973049E-05
568.3083,-3.97239E-05
568.4083,-3.971825E-05
568.5082,-3.972484E-05
568.6082,-3.973144E-05
568.7082,-3.971448E-05
568.8082,-3.968623E-05
568.9081,-3.969659E-05
569.0081,-3.971825E-05
569.1081,-3.967116E-05
569.2081,-3.967022E-05
569.308,-3.97239E-05
569.408,-3.97126E-05
569.508,-3.967493E-05
569.608,-3.966175E-05
569.7079,-3.966552E-05
569.8079,-3.965704E-05
569.9079,-3.967022E-05
570.0079,-3.965327E-05
570.1078,-3.962314E-05
570.2078,-3.963727E-05
570.3078,-3.962125E-05
570.4078,-3.961466E-05
570.5078,-3.964386E-05
570.6077,-3.962314E-05
570.7077,-3.96156E-05
570.8077,-3.961749E-05
570.9077,-3.960336E-05
571.0076,-3.959112E-05
571.1076,-3.960054E-05
571.2076,-3.958641E-05
571.3076,-3.959206E-05
571.4075,-3.958452E-05
571.5075,-3.956946E-05
571.6075,-3.955721E-05
571.7075,-3.961184E-05
571.8074,-3.959677E-05
571.9074,-3.95704E-05
572.0074,-3.957699E-05
572.1074,-3.956664E-05
572.2073,-3.95591E-05
572.3073,-3.955816E-05
572.4073,-3.954874E-05
572.5073,-3.954215E-05
572.6072,-3.954874E-05
572.7072,-3.954121E-05
572.8072,-3.951578E-05
572.9072,-3.953838E-05
573.0071,-3.948659E-05
573.1071,-3.950071E-05
573.2071,-3.952991E-05
573.3071,-3.95252E-05
573.407,-3.949129E-05
573.507,-3.949507E-05
573.607,-3.950071E-05
573.707,-3.948376E-05
573.8069,-3.947717E-05
573.9069,-3.947622E-05
574.0069,-3.947905E-05
574.1069,-3.948564E-05
574.2068,-3.945834E-05
574.3068,-3.944138E-05
574.4068,-3.945645E-05
574.5068,-3.945834E-05
574.6068,-3.943196E-05
574.7067,-3.943856E-05
574.8067,-3.944891E-05
574.9067,-3.944797E-05
575.0067,-3.945739E-05
575.1066,-3.944986E-05
575.2066,-3.942537E-05
575.3066,-3.942443E-05
575.4066,-3.94282E-05
575.5065,-3.938771E-05
575.6065,-3.94282E-05
575.7065,-3.943008E-05
575.8065,-3.941596E-05
575.9064,-3.937923E-05
576.0064,-3.940371E-05
576.1064,-3.941972E-05
576.2064,-3.937923E-05
576.3063,-3.939336E-05
576.4063,-3.937075E-05
576.5063,-3.935757E-05
576.6063,-3.93764E-05
576.7062,-3.934156E-05
576.8062,-3.93604E-05
576.9062,-3.937075E-05
577.0062,-3.932272E-05
577.1061,-3.934062E-05
577.2061,-3.9383E-05
577.3061,-3.937169E-05
577.4061,-3.934627E-05
577.506,-3.932272E-05
577.606,-3.932837E-05
577.706,-3.934721E-05
577.806,-3.933685E-05
577.9059,-3.93199E-05
578.0059,-3.932084E-05
578.1059,-3.932272E-05
578.2059,-3.928882E-05
578.3058,-3.927941E-05
578.4058,-3.931048E-05
578.5058,-3.929541E-05
578.6058,-3.927658E-05
578.7057,-3.928411E-05
578.8057,-3.92681E-05
578.9057,-3.926057E-05
579.0057,-3.927846E-05
579.1057,-3.926528E-05
579.2056,-3.923326E-05
579.3056,-3.925586E-05
579.4056,-3.925963E-05
579.5056,-3.924268E-05
579.6055,-3.924456E-05
579.7055,-3.923044E-05
579.8055,-3.923703E-05
579.9055,-3.92295E-05
580.0054,-3.921631E-05
580.1054,-3.920313E-05
580.2054,-3.920689E-05
580.3054,-3.923138E-05
580.4053,-3.919276E-05
580.5053,-3.918335E-05
580.6053,-3.920313E-05
580.7053,-3.918806E-05
580.8052,-3.917487E-05
580.9052,-3.919465E-05
581.0052,-3.919276E-05
581.1052,-3.919559E-05
581.2051,-3.918241E-05
581.3051,-3.914568E-05
581.4051,-3.917205E-05
581.5051,-3.918146E-05
581.605,-3.913156E-05
581.705,-3.914379E-05
581.805,-3.915792E-05
581.905,-3.916075E-05
582.0049,-3.913344E-05
582.1049,-3.91325E-05
582.2049,-3.91485E-05
582.3049,-3.912025E-05
582.4048,-3.913815E-05
582.5048,-3.913156E-05
582.6048,-3.913344E-05
582.7048,-3.914756E-05
582.8047,-3.910895E-05
582.9047,-3.90807E-05
583.0047,-3.910142E-05
583.1047,-3.909483E-05
583.2047,-3.909671E-05
583.3046,-3.906845E-05
583.4046,-3.906845E-05
583.5046,-3.906657E-05
583.6046,-3.906845E-05
583.7045,-3.908447E-05
583.8045,-3.903738E-05
583.9045,-3.904962E-05
584.0045,-3.906752E-05
584.1044,-3.904397E-05
584.2044,-3.905433E-05
584.3044,-3.906469E-05
584.4044,-3.90289E-05
584.5043,-3.902419E-05
584.6043,-3.902514E-05
584.7043,-3.900913E-05
584.8043,-3.902326E-05
584.9042,-3.902702E-05
585.0042,-3.900442E-05
585.1042,-3.900065E-05
585.2042,-3.90289E-05
585.3041,-3.900913E-05
585.4041,-3.898464E-05
585.5041,-3.8995E-05
585.6041,-3.896298E-05
585.704,-3.900065E-05
585.804,-3.901195E-05
585.904,-3.896581E-05
586.004,-3.89498E-05
586.1039,-3.899123E-05
586.2039,-3.897334E-05
586.3039,-3.893473E-05
586.4039,-3.895168E-05
586.5038,-3.894792E-05
586.6038,-3.893473E-05
586.7038,-3.895639E-05
586.8038,-3.892249E-05
586.9037,-3.890648E-05
587.0037,-3.894226E-05
587.1037,-3.89498E-05
587.2037,-3.891401E-05
587.3036,-3.892531E-05
587.4036,-3.892061E-05
587.5036,-3.891496E-05
587.6036,-3.891307E-05
587.7036,-3.890177E-05
587.8035,-3.88754E-05
587.9035,-3.888953E-05
588.0035,-3.88933E-05
588.1035,-3.886128E-05
588.2034,-3.887634E-05
588.3034,-3.885751E-05
588.4034,-3.886221E-05
588.5034,-3.885092E-05
588.6033,-3.883585E-05
588.7033,-3.883868E-05
588.8033,-3.885939E-05
588.9033,-3.88302E-05
589.0032,-3.882455E-05
589.1032,-3.88302E-05
589.2032,-3.884244E-05
589.3032,-3.882832E-05
589.4031,-3.878782E-05
589.5031,-3.882267E-05
589.6031,-3.880289E-05
589.7031,-3.881607E-05
589.803,-3.881795E-05
589.903,-3.879064E-05
590.003,-3.879064E-05
590.103,-3.879347E-05
590.2029,-3.878499E-05
590.3029,-3.876239E-05
590.4029,-3.877369E-05
590.5029,-3.877464E-05
590.6028,-3.874921E-05
590.7028,-3.875204E-05
590.8028,-3.874168E-05
590.9028,-3.874638E-05
591.0027,-3.87558E-05
591.1027,-3.874544E-05
591.2027,-3.872001E-05
591.3027,-3.872755E-05
591.4026,-3.87219E-05
591.5026,-3.870777E-05
591.6026,-3.872849E-05
591.7026,-3.870401E-05
591.8026,-3.868517E-05
591.9025,-3.873508E-05
592.0025,-3.872755E-05
592.1025,-3.870212E-05
592.2025,-3.872001E-05
592.3024,-3.870024E-05
592.4024,-3.870683E-05
592.5024,-3.868706E-05
592.6024,-3.868046E-05
592.7023,-3.868988E-05
592.8023,-3.868046E-05
592.9023,-3.866634E-05
593.0023,-3.866728E-05
593.1022,-3.866445E-05
593.2022,-3.863526E-05
593.3022,-3.863244E-05
593.4022,-3.864656E-05
593.5021,-3.863432E-05
593.6021,-3.862113E-05
593.7021,-3.861831E-05
593.8021,-3.861831E-05
593.902,-3.863809E-05
594.002,-3.863244E-05
594.102,-3.862208E-05
594.202,-3.861078E-05
594.3019,-3.859194E-05
594.4019,-3.861925E-05
594.5019,-3.862208E-05
594.6019,-3.858253E-05
594.7018,-3.859288E-05
594.8018,-3.85392E-05
594.9018,-3.857499E-05
595.0018,-3.856087E-05
595.1017,-3.855522E-05
595.2017,-3.854109E-05
595.3017,-3.855145E-05
595.4017,-3.855898E-05
595.5016,-3.854862E-05
595.6016,-3.854203E-05
595.7016,-3.854674E-05
595.8016,-3.853073E-05
595.9016,-3.853638E-05
596.0015,-3.851754E-05
596.1015,-3.852414E-05
596.2015,-3.855333E-05
596.3015,-3.852414E-05
596.4014,-3.852602E-05
596.5014,-3.85392E-05
596.6014,-3.853167E-05
596.7014,-3.848929E-05
596.8013,-3.852696E-05
596.9013,-3.850907E-05
597.0013,-3.849306E-05
597.1013,-3.851849E-05
597.2012,-3.850436E-05
597.3012,-3.849306E-05
597.4012,-3.849306E-05
597.5012,-3.846292E-05
597.6011,-3.845633E-05
597.7011,-3.846575E-05
597.8011,-3.846575E-05
597.9011,-3.843467E-05
598.001,-3.843844E-05
598.101,-3.84196E-05
598.201,-3.845727E-05
598.301,-3.845068E-05
598.4009,-3.843844E-05
598.5009,-3.843656E-05
598.6009,-3.84196E-05
598.7009,-3.842996E-05
598.8008,-3.841584E-05
598.9008,-3.841395E-05
599.0008,-3.842903E-05
599.1008,-3.840548E-05
599.2007,-3.84083E-05
599.3007,-3.839418E-05
599.4007,-3.836875E-05
599.5007,-3.838476E-05
599.6006,-3.839324E-05
599.7006,-3.839324E-05
599.8006,-3.838287E-05
599.9006,-3.836781E-05
600.0005,-3.837817E-05
