EXPID. 1017
[电化学]: i-t : @ 0(V) X 600(sec)
起始电位 (V),0
静置时间 (秒),0
运行时间 (秒),600
记录间隔,0.1
电解液 信息:
HNO3,0.4
0.1,-0.01005814
0.2,-0.01005814
0.3,-0.01005814
0.4,-0.01005814
0.5,-0.01005814
0.6,-0.01005814
0.7,-0.01005814
0.8000001,-0.01005814
0.9000001,-0.01005814
1,-0.01005814
1.1,-0.01005814
1.2,-0.005684717
1.3,0.004283617
1.4,0.008381213
1.5,0.01001372
1.6,0.005709406
1.7,0.003124159
1.8,0.002180851
1.9,0.001269081
2,6.758827E-05
2.1,-0.001146069
2.2,-0.002086308
2.3,-0.002707418
2.4,-0.003063572
2.5,-0.003247288
2.6,-0.003325316
2.7,-0.003356361
2.799999,-0.0033606
2.899999,-0.003343998
2.999999,-0.003317261
3.099999,-0.003284993
3.199999,-0.003245568
3.299999,-0.003206508
3.399999,-0.00316364
3.499999,-0.003117925
3.599999,-0.003075261
3.699999,-0.003030795
3.799999,-0.002988306
3.899998,-0.002945004
3.999998,-0.002903871
4.099998,-0.002859955
4.199998,-0.002820169
4.299998,-0.002778528
4.399998,-0.00273701
4.499998,-0.002696258
4.599998,-0.002654929
4.699998,-0.002612761
4.799998,-0.002573336
4.899998,-0.00253101
4.999998,-0.002488201
5.099998,-0.002447213
5.199997,-0.002404338
5.299997,-0.002362849
5.399997,-0.002321417
5.499997,-0.002280927
5.599997,-0.00224294
5.699997,-0.002207117
5.799997,-0.002170771
5.899997,-0.002136606
5.999997,-0.002102646
6.099997,-0.002070554
6.199996,-0.002039547
6.299996,-0.002010494
6.399996,-0.001982184
6.499996,-0.001955068
6.599996,-0.001929673
6.699996,-0.001904536
6.799996,-0.001880985
6.899996,-0.001858404
6.999996,-0.001836377
7.099996,-0.001815019
7.199996,-0.00179503
7.299995,-0.001775012
7.399995,-0.001756605
7.499995,-0.001738566
7.599995,-0.001720445
7.699995,-0.001703126
7.799995,-0.001686789
7.899995,-0.001670715
7.999995,-0.001654859
8.099995,-0.001639569
8.199995,-0.001625643
8.299995,-0.001610225
8.399996,-0.001597229
8.499996,-0.001583619
8.599997,-0.001570149
8.699997,-0.001557548
8.799997,-0.001544741
8.899998,-0.001532781
8.999998,-0.001520358
9.099998,-0.001508844
9.199999,-0.00149762
9.299999,-0.001485889
9.4,-0.001475086
9.5,-0.001464299
9.6,-0.001453667
9.700001,-0.001443114
9.800001,-0.00143306
9.900002,-0.0014229
10,-0.00141283
10.1,-0.001403437
10.2,-0.001394148
10.3,-0.001384691
10.4,-0.001375984
10.5,-0.001366944
10.6,-0.001358315
10.7,-0.001349632
10.8,-0.001341216
10.90001,-0.001332919
11.00001,-0.001324859
11.10001,-0.001316827
11.20001,-0.001308904
11.30001,-0.001301321
11.40001,-0.001293494
11.50001,-0.001286153
11.60001,-0.001278853
11.70001,-0.001271534
11.80001,-0.001264455
11.90001,-0.00125758
12.00001,-0.00125057
12.10001,-0.001243479
12.20001,-0.001237252
12.30001,-0.001230244
12.40001,-0.001223702
12.50001,-0.00121753
12.60001,-0.001210832
12.70001,-0.001204749
12.80001,-0.001198762
12.90001,-0.00119252
13.00001,-0.001186182
13.10001,-0.001180421
13.20001,-0.001174205
13.30001,-0.001168575
13.40001,-0.001162934
13.50002,-0.00115708
13.60002,-0.001151543
13.70002,-0.001146255
13.80002,-0.001140756
13.90002,-0.00113519
14.00002,-0.001130084
14.10002,-0.001124859
14.20002,-0.001119908
14.30002,-0.001114574
14.40002,-0.001109656
14.50002,-0.001104265
14.60002,-0.001099341
14.70002,-0.001094458
14.80002,-0.001089704
14.90002,-0.001084602
15.00002,-0.001080283
15.10002,-0.001075834
15.20002,-0.001070668
15.30002,-0.001066393
15.40002,-0.001062103
15.50002,-0.001057353
15.60002,-0.001052885
15.70002,-0.001048479
15.80002,-0.001044027
15.90002,-0.001039604
16.00002,-0.001035477
16.10003,-0.001031218
16.20003,-0.001026853
16.30003,-0.001022729
16.40003,-0.001018725
16.50003,-0.001014614
16.60003,-0.001010688
16.70003,-0.001006541
16.80003,-0.001002813
16.90003,-0.0009988848
17.00003,-0.0009948486
17.10003,-0.0009912304
17.20003,-0.0009875002
17.30003,-0.0009834121
17.40003,-0.0009798195
17.50003,-0.0009760921
17.60003,-0.0009722273
17.70003,-0.0009686901
17.80003,-0.0009651181
17.90003,-0.000961434
18.00003,-0.000957944
18.10003,-0.0009543852
18.20003,-0.0009507784
18.30003,-0.0009472883
18.40003,-0.0009437653
18.50003,-0.0009404438
18.60003,-0.0009371073
18.70004,-0.0009336125
18.80004,-0.000930324
18.90004,-0.0009272087
19.00004,-0.0009237846
19.10004,-0.000920593
19.20004,-0.000917345
19.30004,-0.0009141658
19.40004,-0.0009110402
19.50004,-0.0009079673
19.60004,-0.0009048219
19.70004,-0.0009017067
19.80004,-0.0008986676
19.90004,-0.0008956993
20.00004,-0.0008926472
20.10004,-0.0008897202
20.20004,-0.0008866596
20.30004,-0.0008837318
20.40004,-0.0008808774
20.50004,-0.000878009
20.60004,-0.0008750198
20.70004,-0.0008722719
20.80004,-0.0008694174
20.90004,-0.0008665706
21.00004,-0.0008638726
21.10004,-0.0008611557
21.20004,-0.0008583418
21.30005,-0.0008556804
21.40005,-0.0008531773
21.50005,-0.0008502702
21.60005,-0.0008477737
21.70005,-0.0008452121
21.80005,-0.0008425555
21.90005,-0.0008400214
22.00005,-0.0008374363
22.10005,-0.0008348927
22.20005,-0.0008323378
22.30005,-0.0008296492
22.40005,-0.0008272741
22.50005,-0.0008247794
22.60005,-0.0008221539
22.70005,-0.0008197995
22.80005,-0.000817351
22.90005,-0.0008148479
23.00005,-0.000812681
23.10005,-0.0008100517
23.20005,-0.0008076559
23.30005,-0.0008053581
23.40005,-0.0008028748
23.50005,-0.0008004648
23.60005,-0.0007982433
23.70005,-0.0007959012
23.80005,-0.0007936053
23.90005,-0.0007914788
24.00006,-0.0007891283
24.10006,-0.0007867175
24.20006,-0.0007847219
24.30006,-0.0007824082
24.40006,-0.0007802167
24.50006,-0.0007780384
24.60006,-0.0007757359
24.70006,-0.000773667
24.80006,-0.0007715198
24.90006,-0.0007693821
25.00006,-0.000767266
25.10006,-0.0007650426
25.20006,-0.0007629322
25.30006,-0.0007609187
25.40006,-0.0007587838
25.50006,-0.000756615
25.60006,-0.0007548126
25.70006,-0.0007527389
25.80006,-0.0007507
25.90006,-0.0007489409
26.00006,-0.0007468605
26.10006,-0.0007448349
26.20006,-0.0007429797
26.30006,-0.0007408844
26.40006,-0.0007389585
26.50006,-0.0007370599
26.60007,-0.0007350503
26.70007,-0.0007331179
26.80007,-0.0007313078
26.90007,-0.0007291834
27.00007,-0.0007273978
27.10007,-0.0007255143
27.20007,-0.0007234878
27.30007,-0.0007216401
27.40007,-0.0007198602
27.50007,-0.0007178194
27.60007,-0.0007158843
27.70007,-0.0007141617
27.80007,-0.0007122934
27.90007,-0.000710489
28.00007,-0.0007089436
28.10007,-0.000706948
28.20007,-0.0007052342
28.30007,-0.0007035786
28.40007,-0.0007016829
28.50007,-0.0006999605
28.60007,-0.0006982427
28.70007,-0.0006965307
28.80007,-0.0006948026
28.90007,-0.0006931781
29.00007,-0.000691468
29.10007,-0.0006896212
29.20008,-0.0006882228
29.30008,-0.00068644
29.40008,-0.0006847986
29.50008,-0.0006831609
29.60008,-0.0006815497
29.70008,-0.0006799618
29.80008,-0.0006782818
29.90008,-0.0006766074
30.00008,-0.0006751656
30.10008,-0.0006735129
30.20008,-0.0006718827
30.30008,-0.0006703562
30.40008,-0.0006687882
30.50008,-0.0006671854
30.60008,-0.000665641
30.70008,-0.0006640616
30.80008,-0.000662424
30.90008,-0.0006608861
31.00008,-0.0006593134
31.10008,-0.0006578029
31.20008,-0.0006562631
31.30008,-0.0006547187
31.40008,-0.0006532921
31.50008,-0.0006518455
31.60008,-0.0006502634
31.70008,-0.0006488424
31.80009,-0.0006473601
31.90009,-0.0006459136
32.00008,-0.0006443917
32.10008,-0.0006429047
32.20008,-0.0006416654
32.30008,-0.0006401794
32.40008,-0.0006385689
32.50008,-0.0006372873
32.60007,-0.0006360631
32.70007,-0.0006345695
32.80007,-0.0006333066
32.90007,-0.0006319109
33.00007,-0.0006302252
33.10007,-0.0006289341
33.20007,-0.000627611
33.30006,-0.0006261071
33.40006,-0.0006247868
33.50006,-0.0006233572
33.60006,-0.0006219653
33.70006,-0.0006206309
33.80006,-0.0006192466
33.90005,-0.0006178773
34.00005,-0.000616558
34.10005,-0.0006152518
34.20005,-0.0006138768
34.30005,-0.0006125979
34.40005,-0.0006111834
34.50005,-0.0006100524
34.60004,-0.0006088159
34.70004,-0.0006074579
34.80004,-0.0006060539
34.90004,-0.0006048833
35.00004,-0.0006035771
35.10004,-0.0006022455
35.20004,-0.0006010288
35.30003,-0.0005997631
35.40003,-0.0005985087
35.50003,-0.0005972881
35.60003,-0.0005961807
35.70003,-0.0005948133
35.80003,-0.0005937304
35.90002,-0.0005926003
36.00002,-0.0005913007
36.10002,-0.0005900783
36.20002,-0.0005887693
36.30002,-0.0005876044
36.40002,-0.0005864188
36.50002,-0.0005852246
36.60001,-0.0005839834
36.70001,-0.0005828618
36.80001,-0.0005816357
36.90001,-0.000580434
37.00001,-0.0005793237
37.10001,-0.0005782172
37.2,-0.0005770334
37.3,-0.0005759288
37.4,-0.0005748279
37.5,-0.0005736216
37.6,-0.0005724312
37.7,-0.0005713134
37.8,-0.0005700939
37.89999,-0.000569024
37.99999,-0.0005679147
38.09999,-0.0005667253
38.19999,-0.0005656441
38.29999,-0.0005645319
38.39999,-0.0005633906
38.49998,-0.0005623632
38.59998,-0.000561218
38.69998,-0.0005600474
38.79998,-0.0005589174
38.89998,-0.0005578853
38.99998,-0.0005568418
39.09998,-0.0005557541
39.19997,-0.0005546466
39.29997,-0.0005536013
39.39997,-0.0005525353
39.49997,-0.0005514683
39.59997,-0.0005505944
39.69997,-0.0005494643
39.79996,-0.0005483756
39.89996,-0.0005474386
39.99996,-0.0005463029
40.09996,-0.0005452594
40.19996,-0.0005442574
40.29996,-0.0005431198
40.39996,-0.0005421508
40.49995,-0.0005412561
40.59995,-0.000540208
40.69995,-0.0005392455
40.79995,-0.0005382821
40.89995,-0.0005371794
40.99995,-0.0005362763
41.09995,-0.0005352224
41.19994,-0.0005341564
41.29994,-0.0005332053
41.39994,-0.0005322871
41.49994,-0.0005312521
41.59994,-0.0005302784
41.69994,-0.0005293989
41.79993,-0.0005283441
41.89993,-0.0005274164
41.99993,-0.0005264822
42.09993,-0.000525451
42.19993,-0.0005244999
42.29993,-0.0005236147
42.39993,-0.0005226654
42.49992,-0.0005217143
42.59992,-0.000520782
42.69992,-0.0005198223
42.79992,-0.0005189549
42.89992,-0.0005179869
42.99992,-0.0005169962
43.09991,-0.0005160997
43.19991,-0.0005152192
43.29991,-0.0005142953
43.39991,-0.0005133875
43.49991,-0.0005124683
43.59991,-0.000511553
43.69991,-0.0005106546
43.7999,-0.0005098485
43.8999,-0.000508952
43.9999,-0.0005079697
44.0999,-0.0005070684
44.1999,-0.0005061936
44.2999,-0.000505331
44.39989,-0.0005044438
44.49989,-0.0005035501
44.59989,-0.0005026884
44.69989,-0.000501824
44.79989,-0.0005009566
44.89989,-0.0005001278
44.99989,-0.0004992756
45.09988,-0.0004984563
45.19988,-0.0004975541
45.29988,-0.0004967235
45.39988,-0.0004958854
45.49988,-0.0004950943
45.59988,-0.0004942731
45.69987,-0.000493451
45.79987,-0.0004925884
45.89987,-0.0004917503
45.99987,-0.0004909517
46.09987,-0.0004901277
46.19987,-0.0004892208
46.29987,-0.0004884372
46.39986,-0.0004875906
46.49986,-0.0004869267
46.59986,-0.0004862091
46.69986,-0.0004852947
46.79986,-0.000484449
46.89986,-0.0004835666
46.99986,-0.0004826465
47.09985,-0.0004818988
47.19985,-0.0004810352
47.29985,-0.0004801801
47.39985,-0.0004794089
47.49985,-0.0004785971
47.59985,-0.0004778126
47.69984,-0.0004770611
47.79984,-0.0004763124
47.89984,-0.000475431
47.99984,-0.0004746861
48.09984,-0.0004739045
48.19984,-0.0004731426
48.29984,-0.0004723591
48.39983,-0.0004715595
48.49983,-0.0004708297
48.59983,-0.0004700462
48.69983,-0.0004692664
48.79983,-0.0004685055
48.89983,-0.0004677898
48.99982,-0.0004670411
49.09982,-0.0004663178
49.19982,-0.0004656021
49.29982,-0.0004647762
49.39982,-0.0004640784
49.49982,-0.0004633279
49.59982,-0.000462565
49.69981,-0.000461838
49.79981,-0.0004611157
49.89981,-0.0004603962
49.99981,-0.0004596071
50.09981,-0.0004589234
50.19981,-0.0004581813
50.2998,-0.0004574562
50.3998,-0.000456715
50.4998,-0.0004560087
50.5998,-0.0004553382
50.6998,-0.0004546102
50.7998,-0.0004537862
50.8998,-0.0004530846
50.99979,-0.0004524141
51.09979,-0.0004516824
51.19979,-0.0004510156
51.29979,-0.0004503555
51.39979,-0.0004496624
51.49979,-0.0004489137
51.59978,-0.0004481811
51.69978,-0.0004475096
51.79978,-0.000446824
51.89978,-0.0004460819
51.99978,-0.0004453728
52.09978,-0.0004446496
52.19978,-0.0004439348
52.29977,-0.0004432897
52.39977,-0.0004426531
52.49977,-0.0004420296
52.59977,-0.0004414665
52.69977,-0.0004407809
52.79977,-0.0004400341
52.89977,-0.000439374
52.99976,-0.0004387374
53.09976,-0.0004379925
53.19976,-0.0004373445
53.29976,-0.0004367286
53.39976,-0.0004359969
53.49976,-0.0004352991
53.59975,-0.0004346973
53.69975,-0.0004339656
53.79975,-0.0004333629
53.89975,-0.0004326924
53.99975,-0.0004319833
54.09975,-0.0004313739
54.19975,-0.0004307882
54.29974,-0.0004300358
54.39974,-0.0004294048
54.49974,-0.0004287946
54.59974,-0.0004281306
54.69974,-0.0004274799
54.79974,-0.000426832
54.89973,-0.0004261596
54.99973,-0.0004256087
55.09973,-0.0004248939
55.19973,-0.0004242243
55.29973,-0.000423697
55.39973,-0.0004230698
55.49973,-0.0004224539
55.59972,-0.0004218681
55.69972,-0.0004212221
55.79972,-0.0004206326
55.89972,-0.0004200073
55.99972,-0.000419334
56.09972,-0.0004187585
56.19971,-0.0004181577
56.29971,-0.0004175437
56.39971,-0.000416909
56.49971,-0.0004163524
56.59971,-0.0004156875
56.69971,-0.0004150575
56.79971,-0.0004144624
56.8997,-0.0004138399
56.9997,-0.0004132456
57.0997,-0.0004126439
57.1997,-0.0004120317
57.2997,-0.000411414
57.3997,-0.0004108546
57.49969,-0.0004102613
57.59969,-0.0004096379
57.69969,-0.0004090634
57.79969,-0.0004084748
57.89969,-0.0004078203
57.99969,-0.0004072656
58.09969,-0.0004066837
58.19968,-0.0004061167
58.29968,-0.0004055018
58.39968,-0.000404885
58.49968,-0.0004043227
58.59968,-0.0004037699
58.69968,-0.0004031898
58.79967,-0.0004025372
58.89967,-0.0004019373
58.99967,-0.0004013723
59.09967,-0.0004008157
59.19967,-0.0004002479
59.29967,-0.0003996668
59.39967,-0.0003990782
59.49966,-0.0003985207
59.59966,-0.0003980075
59.69966,-0.0003974311
59.79966,-0.0003968812
59.89966,-0.0003963321
59.99966,-0.0003957351
60.09966,-0.000395236
60.19965,-0.0003946606
60.29965,-0.000394136
60.39965,-0.0003935926
60.49965,-0.0003930229
60.59965,-0.0003924899
60.69965,-0.0003918712
60.79964,-0.0003913608
60.89964,-0.0003908023
60.99964,-0.0003902241
61.09964,-0.0003896694
61.19964,-0.0003891627
61.29964,-0.0003886062
61.39964,-0.0003880675
61.49963,-0.0003875373
61.59963,-0.0003870335
61.69963,-0.0003868178
61.79963,-0.0003861643
61.89963,-0.0003855079
61.99963,-0.0003849815
62.09962,-0.0003844927
62.19962,-0.0003838711
62.29962,-0.0003833975
62.39962,-0.0003828955
62.49962,-0.0003823606
62.59962,-0.0003817946
62.69962,-0.00038132
62.79961,-0.0003807305
62.89961,-0.0003801767
62.99961,-0.0003797172
63.09961,-0.0003791465
63.19961,-0.0003786455
63.29961,-0.0003781096
63.3996,-0.0003775691
63.4996,-0.0003770964
63.5996,-0.0003766019
63.6996,-0.0003760303
63.7996,-0.0003755538
63.8996,-0.0003750631
63.9996,-0.0003745499
64.09959,-0.0003740178
64.19959,-0.0003735564
64.29959,-0.0003730563
64.39959,-0.0003725506
64.49959,-0.0003720421
64.59959,-0.0003715429
64.69958,-0.000371041
64.79958,-0.0003705711
64.89958,-0.0003700352
64.99958,-0.0003695888
65.09958,-0.0003690775
65.19958,-0.0003686094
65.29958,-0.0003680878
65.39957,-0.0003676159
65.49957,-0.000367065
65.59957,-0.0003665527
65.69957,-0.000366063
65.79957,-0.0003655856
65.89957,-0.0003650883
65.99957,-0.0003646043
66.09956,-0.0003640637
66.19956,-0.0003636409
66.29956,-0.0003631907
66.39956,-0.0003626747
66.49956,-0.0003621576
66.59956,-0.0003616962
66.69955,-0.0003612376
66.79955,-0.0003607893
66.89955,-0.0003603722
66.99955,-0.0003598259
67.09955,-0.0003593325
67.19955,-0.0003588625
67.29955,-0.0003583945
67.39954,-0.000357902
67.49954,-0.0003574566
67.59954,-0.0003570102
67.69954,-0.0003564912
67.79954,-0.0003560769
67.89954,-0.000355639
67.99953,-0.0003551643
68.09953,-0.0003547152
68.19953,-0.0003541897
68.29953,-0.0003537367
68.39953,-0.0003532875
68.49953,-0.000352891
68.59953,-0.0003523778
68.69952,-0.0003519738
68.79952,-0.0003515396
68.89952,-0.0003510217
68.99952,-0.0003505593
69.09952,-0.0003501233
69.19952,-0.0003496298
69.29951,-0.0003492013
69.39951,-0.0003487333
69.49951,-0.0003483142
69.59951,-0.0003479187
69.69951,-0.0003475137
69.79951,-0.0003470108
69.89951,-0.0003465682
69.9995,-0.0003461228
70.0995,-0.0003456623
70.1995,-0.0003452517
70.2995,-0.0003448138
70.3995,-0.0003443476
70.4995,-0.0003439634
70.59949,-0.0003435471
70.69949,-0.0003430744
70.79949,-0.0003426516
70.89949,-0.0003422137
70.99949,-0.0003417635
71.09949,-0.0003413548
71.19949,-0.0003409273
71.29948,-0.0003405995
71.39948,-0.0003400853
71.49948,-0.0003396588
71.59948,-0.0003391653
71.69948,-0.000338749
71.79948,-0.0003383168
71.89948,-0.0003378836
71.99947,-0.0003373939
72.09947,-0.0003370454
72.19947,-0.0003367102
72.29947,-0.0003362581
72.39947,-0.0003358071
72.49947,-0.0003353352
72.59946,-0.0003349011
72.69946,-0.0003345461
72.79946,-0.0003340856
72.89946,-0.0003336825
72.99946,-0.0003335526
73.09946,-0.0003331184
73.19946,-0.00033256
73.29945,-0.0003321164
73.39945,-0.000331687
73.49945,-0.0003312058
73.59945,-0.0003308376
73.69945,-0.0003303648
73.79945,-0.0003299325
73.89944,-0.0003295436
73.99944,-0.0003291641
74.09944,-0.0003287366
74.19944,-0.0003283033
74.29944,-0.0003279116
74.39944,-0.0003274859
74.49944,-0.0003271234
74.59943,-0.0003267147
74.69943,-0.0003262862
74.79943,-0.0003259038
74.89943,-0.0003255582
74.99943,-0.0003251806
75.09943,-0.0003247342
75.19942,-0.0003242737
75.29942,-0.0003238414
75.39942,-0.0003235523
75.49942,-0.0003230843
75.59942,-0.0003226219
75.69942,-0.0003222066
75.79942,-0.0003218261
75.89941,-0.0003215643
75.99941,-0.0003211744
76.09941,-0.0003207695
76.19941,-0.0003203024
76.29941,-0.0003199267
76.39941,-0.0003195792
76.4994,-0.0003191676
76.5994,-0.0003187288
76.6994,-0.0003183445
76.7994,-0.000317918
76.8994,-0.000317561
76.9994,-0.0003172022
77.0994,-0.0003167879
77.19939,-0.0003163584
77.29939,-0.0003159911
77.39939,-0.000315638
77.49939,-0.0003152745
77.59939,-0.0003149148
77.69939,-0.0003144655
77.79939,-0.0003140926
77.89938,-0.0003137451
77.99938,-0.0003133694
78.09938,-0.0003129767
78.19938,-0.0003127017
78.29938,-0.0003123288
78.39938,-0.0003119219
78.49937,-0.0003115273
78.59937,-0.000311177
78.69937,-0.000310773
78.79937,-0.0003104463
78.89937,-0.0003100111
78.99937,-0.0003096505
79.09937,-0.0003093077
79.19936,-0.0003088858
79.29936,-0.0003085072
79.39936,-0.0003081513
79.49936,-0.0003077802
79.59936,-0.0003074044
79.69936,-0.0003070456
79.79935,-0.0003066878
79.89935,-0.0003063007
79.99935,-0.0003059834
80.09935,-0.0003056086
80.19935,-0.0003052093
80.29935,-0.0003048749
80.39935,-0.0003045049
80.49934,-0.0003041432
80.59934,-0.0003038485
80.69934,-0.0003035085
80.79934,-0.0003030537
80.89934,-0.0003027278
80.99934,-0.0003023681
81.09933,-0.0003019989
81.19933,-0.0003016382
81.29933,-0.000301255
81.39933,-0.0003008962
81.49933,-0.0003005468
81.59933,-0.0003002162
81.69933,-0.0002998245
81.79932,-0.0002994835
81.89932,-0.0002991408
81.99932,-0.0002987914
82.09932,-0.000298442
82.19932,-0.000298038
82.29932,-0.0002976924
82.39931,-0.0002974315
82.49931,-0.0002970238
82.59931,-0.0002966292
82.69931,-0.0002963174
82.79931,-0.0002960199
82.89931,-0.0002956714
82.99931,-0.000295371
83.0993,-0.0002949727
83.1993,-0.0002945894
83.2993,-0.0002942626
83.3993,-0.0002939631
83.4993,-0.0002935582
83.5993,-0.0002932323
83.6993,-0.0002928557
83.79929,-0.000292494
83.89929,-0.0002921899
83.99929,-0.0002918245
84.09929,-0.000291475
84.19929,-0.0002911699
84.29929,-0.0002908243
84.39928,-0.0002904834
84.49928,-0.0002901397
84.59928,-0.0002897837
84.69928,-0.0002894324
84.79928,-0.0002891283
84.89928,-0.0002888175
84.99928,-0.0002884728
85.09927,-0.0002881244
85.19927,-0.0002877778
85.29927,-0.0002874812
85.39927,-0.00028716
85.49927,-0.0002867937
85.59927,-0.0002864528
85.69926,-0.0002861373
85.79926,-0.0002858388
85.89926,-0.0002854913
85.99926,-0.0002851881
86.09926,-0.0002848434
86.19926,-0.0002845675
86.29926,-0.0002842878
86.39925,-0.0002840279
86.49925,-0.0002836502
86.59925,-0.0002832848
86.69925,-0.0002829891
86.79925,-0.0002826124
86.89925,-0.0002822979
86.99924,-0.000282021
87.09924,-0.0002817065
87.19924,-0.0002814145
87.29924,-0.0002811
87.39924,-0.0002808344
87.49924,-0.0002804578
87.59924,-0.0002801404
87.69923,-0.0002798211
87.79923,-0.0002795405
87.89923,-0.0002791883
87.99923,-0.0002788653
88.09923,-0.0002785376
88.19923,-0.0002781872
88.29922,-0.0002778604
88.39922,-0.0002775996
88.49922,-0.0002773236
88.59922,-0.0002769677
88.69922,-0.0002766644
88.79922,-0.0002763772
88.89922,-0.0002760429
88.99921,-0.0002757171
89.09921,-0.0002754392
89.19921,-0.0002750918
89.29921,-0.0002748111
89.39921,-0.0002744797
89.49921,-0.000274166
89.59921,-0.0002738581
89.6992,-0.0002735681
89.7992,-0.0002733232
89.8992,-0.0002729785
89.9992,-0.0002726489
90.0992,-0.0002723108
90.1992,-0.0002720208
90.29919,-0.0002718268
90.39919,-0.000271501
90.49919,-0.0002711007
90.59919,-0.0002708125
90.69919,-0.0002705498
90.79919,-0.0002702306
90.89919,-0.0002698963
90.99918,-0.0002696194
91.09918,-0.0002693152
91.19918,-0.0002690713
91.29918,-0.0002687483
91.39918,-0.000268413
91.49918,-0.000268139
91.59917,-0.0002678705
91.69917,-0.0002675494
91.79917,-0.0002672386
91.89917,-0.0002668959
91.99917,-0.0002666379
92.09917,-0.0002663968
92.19917,-0.0002660935
92.29916,-0.0002657517
92.39916,-0.0002654729
92.49916,-0.0002652252
92.59916,-0.0002649616
92.69916,-0.0002646536
92.79916,-0.0002643683
92.89915,-0.0002640905
92.99915,-0.0002638079
93.09915,-0.000263549
93.19915,-0.0002632636
93.29915,-0.0002629368
93.39915,-0.0002626289
93.49915,-0.0002623859
93.59914,-0.0002621119
93.69914,-0.0002619038
93.79914,-0.0002615355
93.89914,-0.0002612266
93.99914,-0.0002609714
94.09914,-0.0002607134
94.19913,-0.0002603951
94.29913,-0.0002600777
94.39913,-0.000259782
94.49913,-0.0002595353
94.59913,-0.0002592255
94.69913,-0.0002588761
94.79913,-0.0002585889
94.89912,-0.000258377
94.99912,-0.0002581218
95.09912,-0.0002577912
95.19912,-0.000257503
95.29912,-0.0002572337
95.39912,-0.0002569465
95.49911,-0.0002566837
95.59911,-0.0002563701
95.69911,-0.0002561112
95.79911,-0.0002559181
95.89911,-0.000255613
95.99911,-0.0002553097
96.09911,-0.0002551356
96.1991,-0.0002548728
96.2991,-0.0002545865
96.3991,-0.0002543106
96.4991,-0.0002539866
96.5991,-0.0002537022
96.6991,-0.0002534979
96.7991,-0.0002531664
96.89909,-0.000252898
96.99909,-0.0002526183
97.09909,-0.0002523734
97.19909,-0.0002521371
97.29909,-0.0002518536
97.39909,-0.0002515174
97.49908,-0.0002512773
97.59908,-0.0002510211
97.69908,-0.0002507555
97.79908,-0.0002504872
97.89908,-0.0002502395
97.99908,-0.0002499513
98.09908,-0.0002496782
98.19907,-0.0002494343
98.29907,-0.0002491565
98.39907,-0.000248906
98.49907,-0.0002485839
98.59907,-0.000248324
98.69907,-0.000248065
98.79906,-0.0002478701
98.89906,-0.0002475678
98.99906,-0.000247273
99.09906,-0.000247047
99.19906,-0.0002467523
99.29906,-0.000246481
99.39906,-0.0002462494
99.49905,-0.0002460055
99.59905,-0.0002456815
99.69905,-0.000245447
99.79905,-0.0002451504
99.89905,-0.000244946
99.99905,-0.0002447539
100.099,-0.0002444582
100.199,-0.0002440994
100.299,-0.0002438338
100.399,-0.0002435814
100.499,-0.0002433309
100.599,-0.0002430889
100.699,-0.0002428431
100.799,-0.0002425926
100.899,-0.0002423468
100.999,-0.0002421067
101.099,-0.0002418458
101.199,-0.0002415963
101.299,-0.0002413655
101.399,-0.0002410821
101.499,-0.0002408523
101.599,-0.0002405848
101.699,-0.0002403579
101.799,-0.0002400839
101.899,-0.0002398343
101.999,-0.0002395659
102.099,-0.0002393907
102.199,-0.000239144
102.299,-0.000238886
102.399,-0.0002385677
102.499,-0.0002383398
102.599,-0.0002381062
102.699,-0.0002378736
102.799,-0.0002375845
102.899,-0.0002373547
102.999,-0.0002370797
103.099,-0.0002369046
103.199,-0.0002366569
103.299,-0.0002363593
103.399,-0.0002360984
103.499,-0.0002358828
103.599,-0.0002356511
103.699,-0.0002354308
103.799,-0.0002351727
103.899,-0.0002348911
103.999,-0.0002346821
104.099,-0.0002344156
104.199,-0.0002341726
104.299,-0.0002338976
104.399,-0.0002336509
104.499,-0.0002334333
104.599,-0.0002331979
104.699,-0.0002330001
104.799,-0.0002327364
104.899,-0.0002324464
104.999,-0.0002322194
105.099,-0.0002319869
105.199,-0.000231758
105.299,-0.0002315141
105.399,-0.0002312636
105.499,-0.0002310168
105.599,-0.0002308247
105.699,-0.0002305714
105.799,-0.0002303275
105.899,-0.0002301486
105.999,-0.0002298727
106.099,-0.0002295948
106.199,-0.0002294037
106.299,-0.0002291485
106.3989,-0.000228898
106.4989,-0.0002286964
106.5989,-0.000228477
106.6989,-0.0002282143
106.7989,-0.0002280165
106.8989,-0.000227765
106.9989,-0.0002275287
107.0989,-0.0002273158
107.1989,-0.0002270663
107.2989,-0.0002268327
107.3989,-0.0002266303
107.4989,-0.0002264099
107.5989,-0.0002261264
107.6989,-0.000225924
107.7989,-0.0002257262
107.8989,-0.000225454
107.9989,-0.0002252308
108.0989,-0.0002250124
108.1989,-0.0002247581
108.2989,-0.0002245566
108.3989,-0.0002243353
108.4989,-0.0002240725
108.5989,-0.0002238135
108.6989,-0.0002236054
108.7989,-0.0002233756
108.8989,-0.0002232165
108.9989,-0.0002229537
109.0989,-0.0002226901
109.1989,-0.0002225262
109.2989,-0.000222286
109.3989,-0.000222029
109.4989,-0.0002218208
109.5989,-0.0002216598
109.6989,-0.0002214008
109.7989,-0.0002211767
109.8989,-0.0002209526
109.9989,-0.0002207303
110.0989,-0.0002204855
110.1989,-0.0002202868
110.2989,-0.0002200918
110.3989,-0.0002198809
110.4989,-0.0002196577
110.5989,-0.0002193931
110.6989,-0.000219135
110.7989,-0.0002189118
110.8989,-0.0002187131
110.9989,-0.0002185088
111.0989,-0.0002183016
111.1989,-0.000218069
111.2989,-0.0002179193
111.3989,-0.0002177064
111.4989,-0.0002174578
111.5989,-0.0002172563
111.6989,-0.0002170302
111.7989,-0.0002167732
111.8989,-0.0002165387
111.9989,-0.0002163353
112.0989,-0.0002160782
112.1989,-0.0002158814
112.2989,-0.0002157137
112.3989,-0.0002154868
112.4989,-0.0002152513
112.5989,-0.0002150555
112.6989,-0.0002148257
112.7989,-0.0002146194
112.8988,-0.0002144414
112.9988,-0.0002142239
113.0988,-0.0002139998
113.1988,-0.0002137869
113.2988,-0.0002135628
113.3988,-0.0002133349
113.4988,-0.0002131654
113.5988,-0.0002129686
113.6988,-0.0002127124
113.7988,-0.0002125052
113.8988,-0.000212299
113.9988,-0.0002120862
114.0988,-0.0002118884
114.1988,-0.0002116859
114.2988,-0.0002114392
114.3988,-0.0002112565
114.4988,-0.0002110503
114.5988,-0.0002108638
114.6988,-0.0002106764
114.7988,-0.0002104344
114.8988,-0.0002102121
114.9988,-0.0002100181
115.0988,-0.0002098006
115.1988,-0.0002095765
115.2988,-0.0002094032
115.3988,-0.0002092252
115.4988,-0.0002089888
115.5988,-0.0002087816
115.6988,-0.0002085763
115.7988,-0.0002083899
115.8988,-0.0002081413
115.9988,-0.0002079548
116.0988,-0.000207725
116.1988,-0.0002075611
116.2988,-0.0002073672
116.3988,-0.0002071543
116.4988,-0.0002069471
116.5988,-0.0002067371
116.6988,-0.0002065205
116.7988,-0.000206351
116.8988,-0.0002061288
116.9988,-0.000205931
117.0988,-0.0002057059
117.1988,-0.0002055458
117.2988,-0.00020535
117.3988,-0.0002051465
117.4988,-0.0002049488
117.5988,-0.0002047303
117.6988,-0.0002045777
117.7988,-0.0002043932
117.8988,-0.0002041323
117.9988,-0.0002039534
118.0988,-0.0002038291
118.1988,-0.0002036181
118.2988,-0.0002034119
118.3988,-0.0002032075
118.4988,-0.0002030418
118.5988,-0.0002028704
118.6988,-0.0002026491
118.7988,-0.0002024118
118.8988,-0.0002022375
118.9988,-0.0002020567
119.0988,-0.0002018609
119.1988,-0.0002016395
119.2988,-0.0002015473
119.3988,-0.0002013787
119.4987,-0.000201147
119.5987,-0.0002009088
119.6987,-0.0002006761
119.7987,-0.0002004662
119.8987,-0.0002003522
119.9987,-0.0002001234
120.0987,-0.0001999096
120.1987,-0.0001996996
120.2987,-0.0001995206
120.3987,-0.0001993201
120.4987,-0.000199159
120.5987,-0.0001989528
120.6987,-0.0001987786
120.7987,-0.0001986053
120.8987,-0.0001984169
120.9987,-0.0001982276
121.0987,-0.0001980553
121.1987,-0.0001978585
121.2987,-0.0001976325
121.3987,-0.0001974639
121.4987,-0.0001972605
121.5987,-0.0001970693
121.6987,-0.0001968838
121.7987,-0.0001966898
121.8987,-0.000196476
121.9987,-0.0001963141
122.0987,-0.0001961624
122.1987,-0.0001959458
122.2987,-0.000195749
122.3987,-0.0001955804
122.4987,-0.0001954524
122.5987,-0.0001952932
122.6987,-0.0001950983
122.7987,-0.0001948478
122.8987,-0.0001946387
122.9987,-0.0001944711
123.0987,-0.000194279
123.1987,-0.000194053
123.2987,-0.0001938929
123.3987,-0.0001937139
123.4987,-0.0001935632
123.5987,-0.0001933627
123.6987,-0.0001931583
123.7987,-0.000192985
123.8987,-0.0001928089
123.9987,-0.0001926385
124.0987,-0.0001924322
124.1987,-0.0001922552
124.2987,-0.0001920829
124.3987,-0.0001919049
124.4987,-0.0001917109
124.5987,-0.0001915188
124.6987,-0.0001913474
124.7987,-0.0001911712
124.8987,-0.0001909876
124.9987,-0.000190803
125.0987,-0.0001906467
125.1987,-0.0001904697
125.2987,-0.0001902832
125.3987,-0.0001901052
125.4987,-0.0001899103
125.5987,-0.0001897229
125.6987,-0.0001895411
125.7987,-0.000189349
125.8987,-0.0001891682
125.9986,-0.0001890269
126.0986,-0.0001888207
126.1986,-0.0001886361
126.2986,-0.000188524
126.3986,-0.0001883282
126.4986,-0.0001881662
126.5986,-0.0001879882
126.6986,-0.0001878262
126.7986,-0.0001876144
126.8986,-0.00018749
126.9986,-0.0001872979
127.0986,-0.0001871199
127.1986,-0.0001869975
127.2986,-0.0001868431
127.3986,-0.0001866557
127.4986,-0.0001864909
127.5986,-0.0001863025
127.6986,-0.000186085
127.7986,-0.0001859371
127.8986,-0.0001857431
127.9986,-0.0001855425
128.0986,-0.0001854163
128.1986,-0.0001852515
128.2986,-0.0001850472
128.3986,-0.0001848965
128.4986,-0.0001847364
128.5986,-0.000184582
128.6987,-0.0001844172
128.7987,-0.0001842439
128.8987,-0.000184031
128.9987,-0.000183903
129.0987,-0.0001837768
129.1987,-0.0001835432
129.2987,-0.0001833605
129.3987,-0.0001832278
129.4987,-0.0001830658
129.5987,-0.000182884
129.6987,-0.0001827089
129.7987,-0.0001825459
129.8987,-0.0001823962
129.9987,-0.000182238
130.0987,-0.0001820779
130.1987,-0.0001818858
130.2988,-0.0001817549
130.3988,-0.0001815543
130.4988,-0.0001814064
130.5988,-0.0001812284
130.6988,-0.0001810618
130.7988,-0.0001808847
130.8988,-0.0001807331
130.9988,-0.0001805749
131.0988,-0.0001803592
131.1988,-0.0001802114
131.2988,-0.0001800626
131.3988,-0.0001798959
131.4988,-0.0001797283
131.5988,-0.0001795503
131.6988,-0.0001793892
131.7988,-0.0001792631
131.8988,-0.0001790879
131.9989,-0.0001788845
132.0989,-0.0001787366
132.1989,-0.0001785558
132.2989,-0.0001784155
132.3989,-0.0001782884
132.4989,-0.0001781038
132.5989,-0.0001779258
132.6989,-0.0001777619
132.7989,-0.0001775915
132.8989,-0.0001774493
132.9989,-0.000177325
133.0989,-0.0001771395
133.1989,-0.000177018
133.2989,-0.0001768645
133.3989,-0.0001766573
133.4989,-0.0001764925
133.599,-0.0001763305
133.699,-0.0001761845
133.799,-0.000176015
133.899,-0.0001758643
133.999,-0.0001756958
134.099,-0.0001755253
134.199,-0.0001753888
134.299,-0.0001752306
134.399,-0.0001750488
134.499,-0.000174916
134.599,-0.0001747785
134.699,-0.0001746015
134.799,-0.0001744357
134.899,-0.0001742634
134.999,-0.0001741033
135.099,-0.0001740044
135.1991,-0.0001737963
135.2991,-0.0001736532
135.3991,-0.0001735147
135.4991,-0.0001733904
135.5991,-0.0001732021
135.6991,-0.000173041
135.7991,-0.0001728762
135.8991,-0.0001727265
135.9991,-0.0001725928
136.0991,-0.000172444
136.1991,-0.0001722585
136.2991,-0.0001721144
136.3991,-0.0001719854
136.4991,-0.0001718366
136.5991,-0.0001717019
136.6991,-0.0001715578
136.7991,-0.0001713827
136.8992,-0.0001712028
136.9992,-0.0001710728
137.0992,-0.0001708713
137.1992,-0.000170715
137.2992,-0.0001705718
137.3992,-0.0001703938
137.4992,-0.0001702545
137.5992,-0.0001701113
137.6992,-0.0001699333
137.7992,-0.0001698156
137.8992,-0.0001696668
137.9992,-0.0001695171
138.0992,-0.0001693513
138.1992,-0.0001691846
138.2992,-0.0001690509
138.3992,-0.0001689247
138.4993,-0.0001687882
138.5993,-0.0001686507
138.6993,-0.0001684868
138.7993,-0.0001683569
138.8993,-0.000168145
138.9993,-0.0001680065
139.0993,-0.0001678512
139.1993,-0.0001677061
139.2993,-0.0001675602
139.3993,-0.0001673925
139.4993,-0.0001672522
139.5993,-0.0001671091
139.6993,-0.0001669782
139.7993,-0.0001668218
139.8993,-0.0001666975
139.9993,-0.0001665459
140.0993,-0.0001663548
140.1994,-0.0001662304
140.2994,-0.0001660722
140.3994,-0.0001659526
140.4994,-0.0001658104
140.5994,-0.0001656503
140.6994,-0.0001654902
140.7994,-0.0001653292
140.8994,-0.000165235
140.9994,-0.0001650608
141.0994,-0.0001649196
141.1994,-0.0001647679
141.2994,-0.0001646286
141.3994,-0.0001644892
141.4994,-0.0001643809
141.5994,-0.0001642123
141.6994,-0.0001640381
141.7995,-0.0001639242
141.8995,-0.0001637895
141.9995,-0.0001636341
142.0995,-0.0001635305
142.1995,-0.0001633487
142.2995,-0.0001631943
142.3995,-0.0001630898
142.4995,-0.000162957
142.5995,-0.000162779
142.6995,-0.0001626471
142.7995,-0.0001625116
142.8995,-0.0001623618
142.9995,-0.0001622121
143.0995,-0.0001620605
143.1995,-0.0001618862
143.2995,-0.0001617855
143.3996,-0.0001616678
143.4996,-0.000161518
143.5996,-0.0001613683
143.6996,-0.0001612063
143.7996,-0.0001610698
143.8996,-0.0001609605
143.9996,-0.0001608305
144.0996,-0.0001606949
144.1996,-0.0001605989
144.2996,-0.0001604642
144.3996,-0.0001603079
144.4996,-0.0001601695
144.5996,-0.0001599934
144.6996,-0.0001598502
144.7996,-0.0001597316
144.8996,-0.0001595677
144.9996,-0.000159401
145.0997,-0.0001592673
145.1997,-0.0001591458
145.2997,-0.0001590253
145.3997,-0.0001588736
145.4997,-0.0001587296
145.5997,-0.00015856
145.6997,-0.0001584743
145.7997,-0.0001583623
145.8997,-0.0001581947
145.9997,-0.000158075
146.0997,-0.0001579385
146.1997,-0.0001578048
146.2997,-0.0001577257
146.3997,-0.000157542
146.4997,-0.0001574177
146.5997,-0.0001573057
146.6998,-0.0001572096
146.7998,-0.0001570203
146.8998,-0.000156912
146.9998,-0.000156767
147.0998,-0.0001566474
147.1998,-0.0001565221
147.2998,-0.0001563809
147.3998,-0.0001562019
147.4998,-0.0001560805
147.5998,-0.0001559402
147.6998,-0.000155813
147.7998,-0.000155716
147.8998,-0.0001555747
147.9998,-0.0001554664
148.0998,-0.0001553318
148.1998,-0.0001552291
148.2999,-0.0001550436
148.3999,-0.0001548807
148.4999,-0.0001547639
148.5999,-0.0001546377
148.6999,-0.0001544908
148.7999,-0.0001543731
148.8999,-0.0001542526
148.9999,-0.0001541113
149.0999,-0.0001539908
149.1999,-0.0001538853
149.2999,-0.000153761
149.3999,-0.0001536442
149.4999,-0.0001534964
149.5999,-0.0001533975
149.6999,-0.0001532873
149.7999,-0.0001531413
149.8999,-0.0001529963
150,-0.0001528692
150.1,-0.0001527675
150.2,-0.0001526026
150.3,-0.0001524868
150.4,-0.0001523361
150.5,-0.0001522297
150.6,-0.0001521176
150.7,-0.0001519632
150.8,-0.000151838
150.9,-0.0001517363
151,-0.0001516044
151.1,-0.0001514575
151.2,-0.0001513426
151.3,-0.000151191
151.4,-0.0001510695
151.5,-0.0001509622
151.6001,-0.0001508058
151.7001,-0.000150738
151.8001,-0.0001506316
151.9001,-0.0001504819
152.0001,-0.0001503114
152.1001,-0.000150189
152.2001,-0.0001500798
152.3001,-0.000149946
152.4001,-0.0001498406
152.5001,-0.0001497162
152.6001,-0.0001495731
152.7001,-0.0001494657
152.8001,-0.0001493546
152.9001,-0.0001491926
153.0001,-0.0001490843
153.1001,-0.0001489525
153.2001,-0.0001488263
153.3002,-0.0001487284
153.4002,-0.0001486022
153.5002,-0.0001484487
153.6002,-0.0001483423
153.7002,-0.0001482019
153.8002,-0.0001481332
153.9002,-0.0001480108
154.0002,-0.0001478883
154.1002,-0.0001477226
154.2002,-0.0001476115
154.3002,-0.0001474909
154.4002,-0.0001473544
154.5002,-0.0001472668
154.6002,-0.0001471397
154.7002,-0.0001470031
154.8002,-0.0001468854
154.9003,-0.0001467677
155.0003,-0.0001466509
155.1003,-0.000146569
155.2003,-0.000146455
155.3003,-0.0001463072
155.4003,-0.0001461565
155.5003,-0.0001460491
155.6003,-0.0001459465
155.7003,-0.0001458146
155.8003,-0.0001457158
155.9003,-0.0001455613
156.0003,-0.0001454361
156.1003,-0.0001453268
156.2003,-0.0001451931
156.3003,-0.0001450876
156.4003,-0.0001449718
156.5004,-0.0001448484
156.6004,-0.0001447514
156.7004,-0.0001446309
156.8004,-0.0001444821
156.9004,-0.00014437
157.0004,-0.0001443079
157.1004,-0.0001441826
157.2004,-0.0001440508
157.3004,-0.0001439858
157.4004,-0.0001438879
157.5004,-0.0001437353
157.6004,-0.0001435799
157.7004,-0.0001434631
157.8004,-0.0001433257
157.9004,-0.0001432428
158.0004,-0.0001431025
158.1004,-0.0001429386
158.2005,-0.0001428247
158.3005,-0.0001427079
158.4005,-0.0001426146
158.5005,-0.0001425054
158.6005,-0.0001423915
158.7005,-0.0001422577
158.8005,-0.0001421673
158.9005,-0.0001420863
159.0005,-0.0001419517
159.1005,-0.0001418462
159.2005,-0.0001417341
159.3005,-0.0001416155
159.4005,-0.0001414949
159.5005,-0.0001413932
159.6005,-0.000141267
159.7005,-0.0001411427
159.8006,-0.0001410457
159.9006,-0.0001409214
160.0006,-0.0001408065
160.1006,-0.0001407255
160.2006,-0.0001405786
160.3006,-0.0001404543
160.4006,-0.0001403338
160.5006,-0.000140216
160.6006,-0.0001401153
160.7006,-0.0001400192
160.8006,-0.0001398968
160.9006,-0.0001397546
161.0006,-0.0001396859
161.1006,-0.0001395691
161.2006,-0.0001394533
161.3006,-0.0001393318
161.4007,-0.0001391943
161.5007,-0.0001390888
161.6007,-0.0001390276
161.7007,-0.0001389023
161.8007,-0.000138779
161.9007,-0.0001386744
162.0007,-0.0001385605
162.1007,-0.0001384447
162.2007,-0.0001383486
162.3007,-0.0001382309
162.4007,-0.0001381188
162.5007,-0.0001380143
162.6007,-0.0001379116
162.7007,-0.0001378137
162.8007,-0.0001377092
162.9007,-0.0001375651
163.0007,-0.0001374879
163.1008,-0.0001373871
163.2008,-0.0001373099
163.3008,-0.0001371724
163.4008,-0.0001370942
163.5008,-0.0001369605
163.6008,-0.0001368145
163.7008,-0.0001367627
163.8008,-0.0001366347
163.9008,-0.0001365019
164.0008,-0.0001364529
164.1008,-0.0001362749
164.2008,-0.0001361459
164.3008,-0.0001360687
164.4008,-0.000135967
164.5008,-0.0001358219
164.6008,-0.0001357249
164.7009,-0.00013561
164.8009,-0.0001355262
164.9009,-0.0001354179
165.0009,-0.0001353106
165.1009,-0.0001351891
165.2009,-0.0001351307
165.3009,-0.0001350328
165.4009,-0.0001349151
165.5009,-0.000134787
165.6009,-0.0001347597
165.7009,-0.0001346382
165.8009,-0.0001345176
165.9009,-0.0001344065
166.0009,-0.0001343067
166.1009,-0.0001341937
166.2009,-0.0001340901
166.3009,-0.0001339809
166.401,-0.0001338754
166.501,-0.0001337821
166.601,-0.0001336371
166.701,-0.0001335768
166.801,-0.000133477
166.901,-0.000133315
167.001,-0.0001331983
167.101,-0.000133122
167.201,-0.0001330146
167.301,-0.0001329035
167.401,-0.0001328206
167.501,-0.0001326944
167.601,-0.0001325654
167.701,-0.0001324891
167.801,-0.0001323733
167.901,-0.0001322876
168.0011,-0.0001321925
168.1011,-0.0001320729
168.2011,-0.0001319477
168.3011,-0.0001318883
168.4011,-0.000131765
168.5011,-0.0001316341
168.6011,-0.0001315681
168.7011,-0.0001314561
168.8011,-0.0001313685
168.9011,-0.0001312498
169.0011,-0.0001311444
169.1011,-0.0001310266
169.2011,-0.000130924
169.3011,-0.0001308016
169.4011,-0.000130714
169.5011,-0.0001306217
169.6012,-0.000130569
169.7012,-0.0001304249
169.8012,-0.0001303194
169.9012,-0.0001302271
170.0012,-0.0001301546
170.1012,-0.0001300924
170.2012,-0.0001300359
170.3012,-0.0001298806
170.4012,-0.0001297628
170.5012,-0.0001296781
170.6012,-0.0001295378
170.7012,-0.0001294078
170.8012,-0.0001292995
170.9012,-0.0001291968
171.0012,-0.0001291319
171.1012,-0.0001290377
171.2012,-0.0001289096
171.3013,-0.0001287806
171.4013,-0.0001286968
171.5013,-0.0001286224
171.6013,-0.0001285339
171.7013,-0.0001284209
171.8013,-0.0001283126
171.9013,-0.0001282212
172.0013,-0.0001281468
172.1013,-0.0001280592
172.2013,-0.0001279726
172.3013,-0.0001278784
172.4013,-0.0001277975
172.5013,-0.0001277165
172.6013,-0.0001276439
172.7013,-0.0001275027
172.8013,-0.000127465
172.9014,-0.0001273916
173.0014,-0.0001273247
173.1014,-0.0001272126
173.2014,-0.0001271128
173.3014,-0.0001270073
173.4014,-0.0001269188
173.5014,-0.0001268491
173.6014,-0.0001267286
173.7014,-0.0001266335
173.8014,-0.0001265892
173.9014,-0.000126431
174.0014,-0.0001263368
174.1014,-0.0001262747
174.2014,-0.0001261786
174.3014,-0.0001260571
174.4014,-0.0001259441
174.5014,-0.0001258377
174.6015,-0.0001257464
174.7015,-0.0001256767
174.8015,-0.0001255797
174.9015,-0.0001254704
175.0015,-0.0001253951
175.1015,-0.000125284
175.2015,-0.0001251888
175.3015,-0.0001250984
175.4015,-0.000125008
175.5015,-0.0001248837
175.6015,-0.0001248112
175.7015,-0.0001247095
175.8015,-0.0001245927
175.9015,-0.0001245598
176.0015,-0.0001244421
176.1015,-0.0001243178
176.2016,-0.0001242509
176.3016,-0.0001241379
176.4016,-0.0001240381
176.5016,-0.0001239985
176.6016,-0.0001238695
176.7016,-0.0001237593
176.8016,-0.0001236934
176.9016,-0.0001236039
177.0016,-0.0001235126
177.1016,-0.0001234043
177.2016,-0.0001233233
177.3016,-0.0001232225
177.4016,-0.0001231585
177.5016,-0.0001230822
177.6016,-0.0001229513
177.7016,-0.0001228383
177.8017,-0.000122779
177.9017,-0.000122649
178.0017,-0.0001225595
178.1017,-0.0001224663
178.2017,-0.0001223514
178.3017,-0.0001222704
178.4017,-0.0001221913
178.5017,-0.0001220924
178.6017,-0.0001220114
178.7017,-0.0001219154
178.8017,-0.000121793
178.9017,-0.0001217148
179.0017,-0.0001216527
179.1017,-0.0001215453
179.2017,-0.0001214276
179.3017,-0.0001213984
179.4017,-0.0001212694
179.5018,-0.000121179
179.6018,-0.0001210933
179.7018,-0.0001209897
179.8018,-0.0001208635
179.9018,-0.000120839
180.0018,-0.0001207439
180.1018,-0.0001206365
180.2018,-0.0001205612
180.3018,-0.0001204501
180.4018,-0.0001203597
180.5018,-0.0001203135
180.6018,-0.0001202297
180.7018,-0.0001201346
180.8018,-0.0001200479
180.9018,-0.0001199387
181.0018,-0.000119886
181.1019,-0.0001198558
181.2019,-0.0001196995
181.3019,-0.0001195846
181.4019,-0.000119513
181.5019,-0.0001194396
181.6019,-0.0001193539
181.7019,-0.0001192663
181.8019,-0.0001191552
181.9019,-0.0001190516
182.0019,-0.0001189923
182.1019,-0.0001189197
182.2019,-0.000118803
182.3019,-0.000118737
182.4019,-0.0001186269
182.5019,-0.0001185252
182.6019,-0.000118447
182.702,-0.0001183783
182.802,-0.0001182586
182.902,-0.0001181805
183.002,-0.000118092
183.102,-0.0001180157
183.202,-0.0001179385
183.302,-0.0001178594
183.402,-0.0001177576
183.502,-0.0001176729
183.602,-0.0001175778
183.702,-0.0001174958
183.802,-0.0001174346
183.902,-0.0001173207
184.002,-0.0001172227
184.102,-0.0001171399
184.202,-0.0001170645
184.302,-0.0001169722
184.4021,-0.000116911
184.5021,-0.0001167782
184.6021,-0.0001167038
184.7021,-0.000116669
184.8021,-0.0001166078
184.9021,-0.0001164628
185.0021,-0.0001163865
185.1021,-0.000116298
185.2021,-0.0001161906
185.3021,-0.000116135
185.4021,-0.0001160324
185.5021,-0.0001159222
185.6021,-0.0001158676
185.7021,-0.00011578
185.8021,-0.0001156905
185.9021,-0.0001155625
186.0022,-0.0001154937
186.1022,-0.0001154127
186.2022,-0.0001153769
186.3022,-0.0001152941
186.4022,-0.000115231
186.5022,-0.0001151688
186.6022,-0.0001150652
186.7022,-0.0001149965
186.8022,-0.0001149033
186.9022,-0.0001147921
187.0022,-0.0001147074
187.1022,-0.0001146603
187.2022,-0.0001145614
187.3022,-0.0001144851
187.4022,-0.0001143938
187.5022,-0.0001142958
187.6022,-0.0001142139
187.7023,-0.000114099
187.8023,-0.0001140548
187.9023,-0.0001139719
188.0023,-0.0001138749
188.1023,-0.0001138193
188.2023,-0.0001137327
188.3023,-0.0001136734
188.4023,-0.0001135717
188.5023,-0.0001134681
188.6023,-0.0001134398
188.7023,-0.0001133682
188.8023,-0.0001132722
188.9023,-0.0001131432
189.0023,-0.000113081
189.1023,-0.0001130066
189.2023,-0.0001129068
189.3024,-0.0001128418
189.4024,-0.0001127382
189.5024,-0.000112661
189.6024,-0.0001126158
189.7024,-0.0001125339
189.8024,-0.00011245
189.9024,-0.0001123672
190.0024,-0.0001122777
190.1024,-0.0001121779
190.2024,-0.0001121365
190.3024,-0.0001120508
190.4024,-0.0001119547
190.5024,-0.0001118982
190.6024,-0.0001117805
190.7024,-0.0001117475
190.8024,-0.0001117023
190.9025,-0.0001115912
191.0025,-0.0001114499
191.1025,-0.0001114019
191.2025,-0.0001113162
191.3025,-0.0001112352
191.4025,-0.000111142
191.5025,-0.0001110704
191.6025,-0.0001109838
191.7025,-0.0001109188
191.8025,-0.0001108067
191.9025,-0.0001107295
192.0025,-0.0001107003
192.1025,-0.0001106137
192.2025,-0.0001105139
192.3025,-0.0001104442
192.4025,-0.0001103726
192.5025,-0.0001102954
192.6026,-0.0001102596
192.7026,-0.0001102003
192.8026,-0.0001101033
192.9026,-0.0001100289
193.0026,-0.0001099648
193.1026,-0.000109849
193.2026,-0.0001097614
193.3026,-0.0001097049
193.4026,-0.0001096305
193.5026,-0.0001095618
193.6026,-0.0001095043
193.7026,-0.000109397
193.8026,-0.0001093329
193.9026,-0.0001092613
194.0026,-0.0001091766
194.1026,-0.000109106
194.2027,-0.0001090363
194.3027,-0.0001089901
194.4027,-0.0001089016
194.5027,-0.0001088376
194.6027,-0.0001087622
194.7027,-0.000108653
194.8027,-0.0001086304
194.9027,-0.000108555
195.0027,-0.0001084345
195.1027,-0.0001083818
195.2027,-0.0001083008
195.3027,-0.0001082349
195.4027,-0.000108151
195.5027,-0.0001080559
195.6027,-0.0001080211
195.7027,-0.0001080041
195.8027,-0.0001079721
195.9028,-0.0001078412
196.0028,-0.0001077028
196.1028,-0.0001076642
196.2028,-0.0001075352
196.3028,-0.0001074711
196.4028,-0.000107424
196.5028,-0.0001073487
196.6028,-0.0001073129
196.7028,-0.0001072734
196.8028,-0.0001071782
196.9028,-0.0001070765
197.0028,-0.0001070163
197.1028,-0.000106908
197.2028,-0.0001068618
197.3028,-0.00010681
197.4028,-0.0001067686
197.5029,-0.0001066961
197.6029,-0.0001065774
197.7029,-0.0001064748
197.8029,-0.000106407
197.9029,-0.000106358
198.0029,-0.000106277
198.1029,-0.0001061847
198.2029,-0.0001061254
198.3029,-0.0001060585
198.4029,-0.0001059935
198.5029,-0.0001059144
198.6029,-0.0001058306
198.7029,-0.0001057835
198.8029,-0.0001057374
198.9029,-0.0001056432
199.0029,-0.00010555
199.103,-0.0001054907
199.203,-0.0001054087
199.303,-0.0001053494
199.403,-0.0001052628
199.503,-0.0001051695
199.603,-0.0001051027
199.703,-0.0001050603
199.803,-0.0001049774
199.903,-0.0001049077
200.003,-0.0001048465
200.103,-0.0001047552
200.203,-0.0001046987
200.303,-0.0001046261
200.403,-0.0001045451
200.503,-0.0001044811
200.603,-0.0001044397
200.703,-0.0001043596
200.8031,-0.0001042777
200.9031,-0.0001042193
201.0031,-0.0001041421
201.1031,-0.0001040677
201.2031,-0.0001040394
201.3031,-0.0001039114
201.4031,-0.0001038549
201.5031,-0.0001037974
201.6031,-0.0001037145
201.7031,-0.0001036571
201.8031,-0.0001035676
201.9031,-0.000103481
202.0031,-0.0001033981
202.1031,-0.0001033736
202.2031,-0.0001032842
202.3031,-0.0001031975
202.4032,-0.0001031467
202.5032,-0.0001030751
202.6032,-0.0001029743
202.7032,-0.0001029291
202.8032,-0.0001028425
202.9032,-0.0001027898
203.0032,-0.0001027653
203.1032,-0.0001026843
203.2032,-0.0001025986
203.3032,-0.0001024865
203.4032,-0.000102431
203.5032,-0.0001023763
203.6032,-0.0001023151
203.7032,-0.0001022464
203.8032,-0.00010214
203.9032,-0.0001020995
204.0033,-0.0001020449
204.1033,-0.0001019658
204.2033,-0.0001018848
204.3033,-0.0001018085
204.4033,-0.0001017397
204.5033,-0.0001016879
204.6033,-0.0001016107
204.7033,-0.0001015514
204.8033,-0.0001014713
204.9033,-0.0001014054
205.0033,-0.0001013404
205.1033,-0.0001012708
205.2033,-0.000101218
205.3033,-0.0001011295
205.4033,-0.0001010947
205.5033,-0.00010104
205.6033,-0.0001009393
205.7034,-0.0001008724
205.8034,-0.0001008178
205.9034,-0.0001007519
206.0034,-0.0001006615
206.1034,-0.0001005861
206.2034,-0.0001005127
206.3034,-0.0001004797
206.4034,-0.000100426
206.5034,-0.0001003422
206.6034,-0.0001002659
206.7034,-0.000100233
206.8034,-0.0001001143
206.9034,-0.0001000493
207.0034,-0.0001000051
207.1034,-9.992408E-05
207.2034,-9.985628E-05
207.3035,-9.979412E-05
207.4035,-9.974609E-05
207.5035,-9.969429E-05
207.6035,-9.962743E-05
207.7035,-9.953891E-05
207.8035,-9.945886E-05
207.9035,-9.9408E-05
208.0035,-9.930913E-05
208.1035,-9.924696E-05
208.2035,-9.921213E-05
208.3035,-9.915939E-05
208.4035,-9.907652E-05
208.5035,-9.902473E-05
208.6035,-9.89588E-05
208.7035,-9.88957E-05
208.8035,-9.885993E-05
208.9035,-9.875633E-05
209.0036,-9.864426E-05
209.1036,-9.862543E-05
209.2036,-9.855763E-05
209.3036,-9.849265E-05
209.4036,-9.84239E-05
209.5036,-9.833444E-05
209.6036,-9.830336E-05
209.7036,-9.823461E-05
209.8036,-9.816021E-05
209.9036,-9.808676E-05
210.0036,-9.806509E-05
210.1036,-9.798882E-05
210.2036,-9.787582E-05
210.3036,-9.782214E-05
210.4036,-9.779577E-05
210.5036,-9.771949E-05
210.6037,-9.767523E-05
210.7037,-9.756505E-05
210.8037,-9.749159E-05
210.9037,-9.746522E-05
211.0037,-9.737293E-05
211.1037,-9.730135E-05
211.2037,-9.719777E-05
211.3037,-9.716858E-05
211.4037,-9.708005E-05
211.5037,-9.704803E-05
211.6037,-9.698494E-05
211.7037,-9.688794E-05
211.8037,-9.684745E-05
211.9037,-9.678152E-05
212.0037,-9.671183E-05
212.1037,-9.665627E-05
212.2038,-9.659223E-05
212.3038,-9.653479E-05
212.4038,-9.649053E-05
212.5038,-9.644627E-05
212.6038,-9.633891E-05
212.7038,-9.628429E-05
212.8038,-9.625132E-05
212.9038,-9.619012E-05
213.0038,-9.612419E-05
213.1038,-9.605357E-05
213.2038,-9.599329E-05
213.3038,-9.592925E-05
213.4038,-9.588312E-05
213.5038,-9.580023E-05
213.6038,-9.573055E-05
213.7038,-9.570135E-05
213.8038,-9.562979E-05
213.9039,-9.556104E-05
214.0039,-9.553372E-05
214.1039,-9.542637E-05
214.2039,-9.536233E-05
214.3039,-9.533032E-05
214.4039,-9.524273E-05
214.5039,-9.519188E-05
214.6039,-9.512125E-05
214.7039,-9.506003E-05
214.8039,-9.500071E-05
214.9039,-9.497339E-05
215.0039,-9.488016E-05
215.1039,-9.479823E-05
215.2039,-9.476245E-05
215.3039,-9.470312E-05
215.4039,-9.465415E-05
215.504,-9.459765E-05
215.604,-9.451948E-05
215.704,-9.442907E-05
215.804,-9.440177E-05
215.904,-9.434055E-05
216.004,-9.426427E-05
216.104,-9.422096E-05
216.204,-9.415503E-05
216.304,-9.408159E-05
216.404,-9.404296E-05
216.504,-9.395068E-05
216.604,-9.391301E-05
216.704,-9.386592E-05
216.804,-9.378681E-05
216.904,-9.372467E-05
217.004,-9.367004E-05
217.104,-9.360883E-05
217.2041,-9.355515E-05
217.3041,-9.349394E-05
217.4041,-9.345062E-05
217.5041,-9.337527E-05
217.6041,-9.333478E-05
217.7041,-9.324909E-05
217.8041,-9.318034E-05
217.9041,-9.314078E-05
218.0041,-9.309558E-05
218.1041,-9.302119E-05
218.2041,-9.296751E-05
218.3041,-9.290536E-05
218.4041,-9.283378E-05
218.5041,-9.278387E-05
218.6041,-9.273019E-05
218.7041,-9.267558E-05
218.8042,-9.261908E-05
218.9042,-9.25522E-05
219.0042,-9.246934E-05
219.1042,-9.241471E-05
219.2042,-9.236857E-05
219.3042,-9.231678E-05
219.4042,-9.225273E-05
219.5042,-9.21934E-05
219.6042,-9.210771E-05
219.7042,-9.205779E-05
219.8042,-9.199376E-05
219.9042,-9.193819E-05
220.0042,-9.189394E-05
220.1042,-9.178847E-05
220.2042,-9.173007E-05
220.3042,-9.17216E-05
220.4043,-9.165944E-05
220.5043,-9.15728E-05
220.6043,-9.1505E-05
220.7043,-9.146733E-05
220.8043,-9.138635E-05
220.9043,-9.135433E-05
221.0043,-9.128934E-05
221.1043,-9.12319E-05
221.2043,-9.117163E-05
221.3043,-9.110194E-05
221.4043,-9.105015E-05
221.5043,-9.102378E-05
221.6043,-9.095974E-05
221.7043,-9.089287E-05
221.8043,-9.087404E-05
221.9043,-9.082884E-05
222.0043,-9.072807E-05
222.1044,-9.067251E-05
222.2044,-9.06339E-05
222.3044,-9.055103E-05
222.4044,-9.052183E-05
222.5044,-9.044084E-05
222.6044,-9.036927E-05
222.7044,-9.035609E-05
222.8044,-9.0309E-05
222.9044,-9.021765E-05
223.0044,-9.017245E-05
223.1044,-9.013102E-05
223.2044,-9.008111E-05
223.3044,-9.002366E-05
223.4044,-8.997092E-05
223.5044,-8.988805E-05
223.6044,-8.982496E-05
223.7045,-8.97741E-05
223.8045,-8.972984E-05
223.9045,-8.964414E-05
224.0045,-8.959517E-05
224.1045,-8.954243E-05
224.2045,-8.949535E-05
224.3045,-8.944449E-05
224.4045,-8.937198E-05
224.5045,-8.931736E-05
224.6045,-8.927686E-05
224.7045,-8.918363E-05
224.8045,-8.91309E-05
224.9045,-8.910453E-05
225.0045,-8.906215E-05
225.1045,-8.899622E-05
225.2045,-8.893973E-05
225.3046,-8.885026E-05
225.4046,-8.879187E-05
225.5046,-8.877587E-05
225.6046,-8.870994E-05
225.7046,-8.861577E-05
225.8046,-8.859505E-05
225.9046,-8.854797E-05
226.0046,-8.848486E-05
226.1046,-8.84359E-05
226.2046,-8.836338E-05
226.3046,-8.829463E-05
226.4046,-8.826733E-05
226.5046,-8.820705E-05
226.6046,-8.815149E-05
226.7046,-8.812041E-05
226.8046,-8.803943E-05
226.9046,-8.796692E-05
227.0047,-8.793302E-05
227.1047,-8.786898E-05
227.2047,-8.781907E-05
227.3047,-8.777386E-05
227.4047,-8.771642E-05
227.5047,-8.766932E-05
227.6047,-8.764485E-05
227.7047,-8.756103E-05
227.8047,-8.750076E-05
227.9047,-8.747156E-05
228.0047,-8.743202E-05
228.1047,-8.733219E-05
228.2047,-8.725874E-05
228.3047,-8.722954E-05
228.4047,-8.720129E-05
228.5047,-8.716173E-05
228.6048,-8.707321E-05
228.7048,-8.697715E-05
228.8048,-8.696492E-05
228.9048,-8.691123E-05
229.0048,-8.683307E-05
229.1048,-8.680011E-05
229.2048,-8.673796E-05
229.3048,-8.668616E-05
229.4048,-8.663436E-05
229.5048,-8.658446E-05
229.6048,-8.652418E-05
229.7048,-8.647428E-05
229.8048,-8.645544E-05
229.9048,-8.638103E-05
230.0048,-8.632265E-05
230.1048,-8.625956E-05
230.2048,-8.621247E-05
230.3049,-8.618798E-05
230.4049,-8.612301E-05
230.5049,-8.606462E-05
230.6049,-8.600435E-05
230.7049,-8.599776E-05
230.8049,-8.591677E-05
230.9049,-8.588852E-05
231.0049,-8.582731E-05
231.1049,-8.572842E-05
231.2049,-8.567663E-05
231.3049,-8.567663E-05
231.4049,-8.558716E-05
231.5049,-8.558245E-05
231.6049,-8.550805E-05
231.7049,-8.545344E-05
231.8049,-8.540729E-05
231.905,-8.536397E-05
232.005,-8.529523E-05
232.105,-8.522082E-05
232.205,-8.519634E-05
232.305,-8.515585E-05
232.405,-8.50984E-05
232.505,-8.506449E-05
232.605,-8.497786E-05
232.705,-8.495149E-05
232.805,-8.490912E-05
232.905,-8.483377E-05
233.005,-8.477162E-05
233.105,-8.475185E-05
233.205,-8.471229E-05
233.305,-8.46492E-05
233.405,-8.45974E-05
233.5051,-8.45569E-05
233.6051,-8.448439E-05
233.7051,-8.443825E-05
233.8051,-8.438739E-05
233.9051,-8.433655E-05
234.0051,-8.43177E-05
234.1051,-8.420376E-05
234.2051,-8.414914E-05
234.3051,-8.416797E-05
234.4051,-8.408887E-05
234.5051,-8.401542E-05
234.6051,-8.397774E-05
234.7051,-8.393442E-05
234.8051,-8.387039E-05
234.9051,-8.385061E-05
235.0051,-8.374042E-05
235.1051,-8.373383E-05
235.2052,-8.374325E-05
235.3052,-8.369617E-05
235.4052,-8.360387E-05
235.5052,-8.355115E-05
235.6052,-8.34918E-05
235.7052,-8.343814E-05
235.8052,-8.339575E-05
235.9052,-8.333172E-05
236.0052,-8.325732E-05
236.1052,-8.323283E-05
236.2052,-8.319234E-05
236.3052,-8.312924E-05
236.4052,-8.309534E-05
236.5052,-8.302377E-05
236.6052,-8.298233E-05
236.7052,-8.293619E-05
236.8053,-8.290982E-05
236.9053,-8.283825E-05
237.0053,-8.282789E-05
237.1053,-8.27648E-05
237.2053,-8.271771E-05
237.3053,-8.268287E-05
237.4053,-8.261882E-05
237.5053,-8.257738E-05
237.6053,-8.255572E-05
237.7053,-8.249263E-05
237.8053,-8.245779E-05
237.9053,-8.242765E-05
238.0053,-8.236549E-05
238.1053,-8.231371E-05
238.2053,-8.22798E-05
238.3053,-8.221011E-05
238.4053,-8.218186E-05
238.5054,-8.215738E-05
238.6054,-8.211783E-05
238.7054,-8.202647E-05
238.8054,-8.199445E-05
238.9054,-8.194454E-05
239.0054,-8.189087E-05
239.1054,-8.183248E-05
239.2054,-8.176656E-05
239.3054,-8.172135E-05
239.4054,-8.170911E-05
239.5054,-8.16705E-05
239.6054,-8.159516E-05
239.7054,-8.153018E-05
239.8054,-8.148403E-05
239.9054,-8.143695E-05
240.0054,-8.143224E-05
240.1055,-8.138893E-05
240.2055,-8.129663E-05
240.3055,-8.125708E-05
240.4055,-8.122788E-05
240.5055,-8.117139E-05
240.6055,-8.114878E-05
240.7055,-8.111299E-05
240.8055,-8.102824E-05
240.9055,-8.099057E-05
241.0055,-8.095008E-05
241.1055,-8.089357E-05
241.2055,-8.084366E-05
241.3055,-8.079752E-05
241.4055,-8.074666E-05
241.5055,-8.070805E-05
241.6055,-8.068168E-05
241.7056,-8.060352E-05
241.8056,-8.05602E-05
241.9056,-8.051499E-05
242.0056,-8.047827E-05
242.1056,-8.044625E-05
242.2056,-8.041046E-05
242.3056,-8.034642E-05
242.4056,-8.030405E-05
242.5056,-8.027015E-05
242.6056,-8.021364E-05
242.7056,-8.017691E-05
242.8056,-8.014866E-05
242.9056,-8.007897E-05
243.0056,-8.004413E-05
243.1056,-7.996973E-05
243.2056,-7.993301E-05
243.3056,-7.991888E-05
243.4057,-7.986897E-05
243.5057,-7.982847E-05
243.6057,-7.979551E-05
243.7057,-7.977197E-05
243.8057,-7.971076E-05
243.9057,-7.965897E-05
244.0057,-7.960905E-05
244.1057,-7.952994E-05
244.2057,-7.951205E-05
244.3057,-7.946684E-05
244.4057,-7.940846E-05
244.5057,-7.935949E-05
244.6057,-7.932465E-05
244.7057,-7.929451E-05
244.8057,-7.92493E-05
244.9057,-7.922294E-05
245.0058,-7.916173E-05
245.1058,-7.912501E-05
245.2058,-7.906379E-05
245.3058,-7.901764E-05
245.4058,-7.894135E-05
245.5058,-7.894135E-05
245.6058,-7.887638E-05
245.7058,-7.88406E-05
245.8058,-7.879916E-05
245.9058,-7.873606E-05
246.0058,-7.870781E-05
246.1058,-7.867673E-05
246.2058,-7.864472E-05
246.3058,-7.855714E-05
246.4058,-7.854112E-05
246.5058,-7.84997E-05
246.6059,-7.845261E-05
246.7059,-7.840269E-05
246.8059,-7.832264E-05
246.9059,-7.827838E-05
247.0059,-7.828497E-05
247.1059,-7.822282E-05
247.2059,-7.815501E-05
247.3059,-7.811734E-05
247.4059,-7.807968E-05
247.5059,-7.805237E-05
247.6059,-7.803259E-05
247.7059,-7.798174E-05
247.8059,-7.790358E-05
247.9059,-7.788474E-05
248.0059,-7.78273E-05
248.1059,-7.776891E-05
248.2059,-7.773312E-05
248.306,-7.768416E-05
248.406,-7.766437E-05
248.506,-7.762294E-05
248.606,-7.756455E-05
248.706,-7.749863E-05
248.806,-7.748356E-05
248.906,-7.744966E-05
249.006,-7.740164E-05
249.106,-7.736208E-05
249.206,-7.730746E-05
249.306,-7.728203E-05
249.406,-7.726884E-05
249.506,-7.719633E-05
249.606,-7.715207E-05
249.706,-7.711346E-05
249.806,-7.708144E-05
249.9061,-7.701175E-05
250.0061,-7.699669E-05
250.1061,-7.693736E-05
250.2061,-7.689215E-05
250.3061,-7.684978E-05
250.4061,-7.679328E-05
250.5061,-7.676125E-05
250.6061,-7.673489E-05
250.7061,-7.671228E-05
250.8061,-7.662847E-05
250.9061,-7.659551E-05
251.0061,-7.65635E-05
251.1061,-7.653713E-05
251.2061,-7.65051E-05
251.3061,-7.643164E-05
251.4061,-7.636007E-05
251.5061,-7.635536E-05
251.6062,-7.631111E-05
251.7062,-7.626308E-05
251.8062,-7.622918E-05
251.9062,-7.620187E-05
252.0062,-7.615102E-05
252.1062,-7.611052E-05
252.2062,-7.607756E-05
252.3062,-7.602859E-05
252.4062,-7.597962E-05
252.5062,-7.595796E-05
252.6062,-7.588262E-05
252.7062,-7.58393E-05
252.8062,-7.581105E-05
252.9062,-7.577244E-05
253.0062,-7.575737E-05
253.1062,-7.570463E-05
253.2063,-7.561517E-05
253.3063,-7.566978E-05
253.4063,-7.560576E-05
253.5063,-7.553135E-05
253.6063,-7.547391E-05
253.7063,-7.546073E-05
253.8063,-7.54287E-05
253.9063,-7.537032E-05
254.0063,-7.535431E-05
254.1063,-7.52639E-05
254.2063,-7.52366E-05
254.3063,-7.522529E-05
254.4063,-7.518668E-05
254.5063,-7.510758E-05
254.6063,-7.508497E-05
254.7063,-7.508403E-05
254.8064,-7.501905E-05
254.9064,-7.497291E-05
255.0064,-7.493336E-05
255.1064,-7.49117E-05
255.2064,-7.488627E-05
255.3064,-7.481564E-05
255.4064,-7.478927E-05
255.5064,-7.478927E-05
255.6064,-7.477702E-05
255.7064,-7.466778E-05
255.8064,-7.461599E-05
255.9064,-7.457362E-05
256.0064,-7.453689E-05
256.1064,-7.451617E-05
256.2064,-7.448132E-05
256.3064,-7.442765E-05
256.4064,-7.441352E-05
256.5064,-7.437209E-05
256.6064,-7.429674E-05
256.7065,-7.424872E-05
256.8065,-7.421481E-05
256.9065,-7.416961E-05
257.0065,-7.412629E-05
257.1065,-7.408203E-05
257.2065,-7.404813E-05
257.3065,-7.401423E-05
257.4065,-7.399444E-05
257.5065,-7.394548E-05
257.6065,-7.389839E-05
257.7065,-7.386167E-05
257.8065,-7.385413E-05
257.9065,-7.379198E-05
258.0065,-7.375054E-05
258.1065,-7.371098E-05
258.2065,-7.365731E-05
258.3065,-7.363281E-05
258.4066,-7.361775E-05
258.5066,-7.356596E-05
258.6066,-7.35151E-05
258.7066,-7.346708E-05
258.8066,-7.34247E-05
258.9066,-7.34021E-05
259.0066,-7.334842E-05
259.1066,-7.331264E-05
259.2066,-7.32712E-05
259.3066,-7.32194E-05
259.4066,-7.318361E-05
259.5066,-7.31855E-05
259.6066,-7.311393E-05
259.7066,-7.307155E-05
259.8066,-7.304236E-05
259.9066,-7.298585E-05
260.0067,-7.294913E-05
260.1067,-7.293783E-05
260.2067,-7.289639E-05
260.3067,-7.283706E-05
260.4067,-7.280316E-05
260.5067,-7.275701E-05
260.6067,-7.270804E-05
260.7067,-7.269392E-05
260.8067,-7.266661E-05
260.9067,-7.260257E-05
261.0067,-7.259127E-05
261.1067,-7.249145E-05
261.2067,-7.249427E-05
261.3067,-7.248863E-05
261.4067,-7.240198E-05
261.5067,-7.234548E-05
261.6068,-7.234831E-05
261.7068,-7.233512E-05
261.8068,-7.229368E-05
261.9068,-7.224283E-05
262.0068,-7.21882E-05
262.1068,-7.21317E-05
262.2068,-7.214017E-05
262.3068,-7.208556E-05
262.4068,-7.206767E-05
262.5068,-7.202623E-05
262.6068,-7.196314E-05
262.7068,-7.193676E-05
262.8068,-7.191605E-05
262.9068,-7.187367E-05
263.0068,-7.182093E-05
263.1068,-7.17955E-05
263.2068,-7.175124E-05
263.3069,-7.174277E-05
263.4069,-7.172016E-05
263.5069,-7.165613E-05
263.6069,-7.161374E-05
263.7069,-7.159868E-05
263.8069,-7.154877E-05
263.9069,-7.15111E-05
264.0069,-7.148567E-05
264.1069,-7.146025E-05
264.2069,-7.140375E-05
264.3069,-7.141128E-05
264.4069,-7.13689E-05
264.5069,-7.132463E-05
264.6069,-7.132463E-05
264.7069,-7.124931E-05
264.8069,-7.118149E-05
264.907,-7.117396E-05
265.007,-7.115513E-05
265.107,-7.109674E-05
265.207,-7.105437E-05
265.307,-7.098279E-05
265.407,-7.09762E-05
265.507,-7.095266E-05
265.607,-7.090368E-05
265.707,-7.085755E-05
265.807,-7.084435E-05
265.907,-7.081423E-05
266.007,-7.075395E-05
266.107,-7.071062E-05
266.207,-7.068803E-05
266.307,-7.06174E-05
266.407,-7.06061E-05
266.507,-7.055713E-05
266.6071,-7.052417E-05
266.7071,-7.049215E-05
266.8071,-7.045825E-05
266.9071,-7.039327E-05
267.0071,-7.037443E-05
267.1071,-7.035372E-05
267.2071,-7.031981E-05
267.3071,-7.026896E-05
267.4071,-7.023787E-05
267.5071,-7.018608E-05
267.6071,-7.017196E-05
267.7071,-7.016537E-05
267.8071,-7.010699E-05
267.9071,-7.002599E-05
268.0071,-7.004577E-05
268.1071,-6.998644E-05
268.2072,-6.996572E-05
268.3072,-6.991487E-05
268.4072,-6.986213E-05
268.5072,-6.98546E-05
268.6072,-6.980092E-05
268.7072,-6.976702E-05
268.8072,-6.974818E-05
268.9072,-6.968885E-05
269.0072,-6.965966E-05
269.1072,-6.961069E-05
269.2072,-6.958337E-05
269.3072,-6.953252E-05
269.4072,-6.950238E-05
269.5072,-6.948638E-05
269.6072,-6.942046E-05
269.7072,-6.93988E-05
269.8073,-6.938467E-05
269.9073,-6.934324E-05
270.0073,-6.930933E-05
270.1073,-6.928767E-05
270.2073,-6.925754E-05
270.3073,-6.923494E-05
270.4073,-6.919821E-05
270.5073,-6.914548E-05
270.6073,-6.910027E-05
270.7073,-6.907955E-05
270.8073,-6.901645E-05
270.9073,-6.900045E-05
271.0073,-6.898444E-05
271.1073,-6.894488E-05
271.2073,-6.889027E-05
271.3073,-6.888084E-05
271.4073,-6.883565E-05
271.5074,-6.881681E-05
271.6074,-6.877915E-05
271.7074,-6.871416E-05
271.8074,-6.867649E-05
271.9074,-6.867932E-05
272.0074,-6.863693E-05
272.1074,-6.860116E-05
272.2074,-6.857102E-05
272.3074,-6.852958E-05
272.4074,-6.848908E-05
272.5074,-6.845706E-05
272.6074,-6.842317E-05
272.7074,-6.838361E-05
272.8074,-6.838173E-05
272.9074,-6.835253E-05
273.0074,-6.830357E-05
273.1075,-6.825177E-05
273.2075,-6.82254E-05
273.3075,-6.819998E-05
273.4075,-6.818396E-05
273.5075,-6.811239E-05
273.6075,-6.807189E-05
273.7075,-6.807189E-05
273.8075,-6.807096E-05
273.9075,-6.79928E-05
274.0075,-6.796737E-05
274.1075,-6.792593E-05
274.2075,-6.789674E-05
274.3075,-6.788261E-05
274.4075,-6.784024E-05
274.5075,-6.778749E-05
274.6075,-6.775925E-05
274.7076,-6.769144E-05
274.8076,-6.769803E-05
274.9076,-6.770274E-05
275.0076,-6.766319E-05
275.1076,-6.758597E-05
275.2076,-6.754076E-05
275.3076,-6.752193E-05
275.4076,-6.748049E-05
275.5076,-6.746071E-05
275.6076,-6.739479E-05
275.7076,-6.735995E-05
275.8076,-6.734677E-05
275.9076,-6.732982E-05
276.0076,-6.728084E-05
276.1076,-6.721116E-05
276.2076,-6.719326E-05
276.3076,-6.715654E-05
276.4077,-6.714806E-05
276.5077,-6.709533E-05
276.6077,-6.706424E-05
276.7077,-6.701999E-05
276.8077,-6.699833E-05
276.9077,-6.694276E-05
277.0077,-6.691828E-05
277.1077,-6.691357E-05
277.2077,-6.686366E-05
277.3077,-6.683446E-05
277.4077,-6.679491E-05
277.5077,-6.677514E-05
277.6077,-6.672804E-05
277.7077,-6.672428E-05
277.8077,-6.66546E-05
277.9077,-6.662541E-05
278.0078,-6.660656E-05
278.1078,-6.658585E-05
278.2078,-6.654253E-05
278.3078,-6.655571E-05
278.4078,-6.64832E-05
278.5078,-6.643235E-05
278.6078,-6.645024E-05
278.7078,-6.640503E-05
278.8078,-6.637772E-05
278.9078,-6.634759E-05
279.0078,-6.63071E-05
279.1078,-6.626001E-05
279.2078,-6.625436E-05
279.3078,-6.622045E-05
279.4078,-6.617713E-05
279.5078,-6.615736E-05
279.6078,-6.609897E-05
279.7079,-6.608391E-05
279.8079,-6.605189E-05
279.9079,-6.602363E-05
280.0079,-6.596901E-05
280.1079,-6.598784E-05
280.2079,-6.59709E-05
280.3079,-6.591157E-05
280.4079,-6.586166E-05
280.5079,-6.584941E-05
280.6079,-6.580233E-05
280.7079,-6.580139E-05
280.8079,-6.576371E-05
280.9079,-6.569497E-05
281.0079,-6.568273E-05
281.1079,-6.565918E-05
281.2079,-6.559985E-05
281.308,-6.558197E-05
281.408,-6.555654E-05
281.508,-6.550569E-05
281.608,-6.548967E-05
281.708,-6.545012E-05
281.808,-6.539738E-05
281.908,-6.539644E-05
282.008,-6.537761E-05
282.108,-6.532676E-05
282.208,-6.530416E-05
282.308,-6.527496E-05
282.408,-6.524388E-05
282.508,-6.52354E-05
282.608,-6.516949E-05
282.708,-6.512711E-05
282.808,-6.512617E-05
282.9081,-6.509226E-05
283.0081,-6.504046E-05
283.1081,-6.502069E-05
283.2081,-6.499056E-05
283.3081,-6.494911E-05
283.4081,-6.491334E-05
283.5081,-6.490203E-05
283.6081,-6.485024E-05
283.7081,-6.482576E-05
283.8081,-6.480786E-05
283.9081,-6.476266E-05
284.0081,-6.473817E-05
284.1081,-6.469955E-05
284.2081,-6.467508E-05
284.3081,-6.465624E-05
284.4081,-6.462987E-05
284.5081,-6.457148E-05
284.6082,-6.455171E-05
284.7082,-6.453475E-05
284.8082,-6.450085E-05
284.9082,-6.448107E-05
285.0082,-6.442363E-05
285.1082,-6.437938E-05
285.2082,-6.436618E-05
285.3082,-6.434735E-05
285.4082,-6.432287E-05
285.5082,-6.428614E-05
285.6082,-6.425883E-05
285.7082,-6.420704E-05
285.8082,-6.42061E-05
285.9082,-6.417407E-05
286.0082,-6.411758E-05
286.1082,-6.413829E-05
286.2083,-6.40978E-05
286.3083,-6.403564E-05
286.4083,-6.401868E-05
286.5083,-6.399043E-05
286.6083,-6.396501E-05
286.7083,-6.393017E-05
286.8083,-6.39377E-05
286.9083,-6.386895E-05
287.0083,-6.384729E-05
287.1083,-6.381528E-05
287.2083,-6.37889E-05
287.3083,-6.379455E-05
287.4083,-6.375123E-05
287.5083,-6.370227E-05
287.6083,-6.36872E-05
287.7083,-6.365047E-05
287.8083,-6.361469E-05
287.9084,-6.360809E-05
288.0084,-6.358078E-05
288.1084,-6.354405E-05
288.2084,-6.352239E-05
288.3084,-6.347813E-05
288.4084,-6.344329E-05
288.5084,-6.344517E-05
288.6084,-6.34301E-05
288.7084,-6.337078E-05
288.8084,-6.333405E-05
288.9084,-6.332086E-05
289.0084,-6.330392E-05
289.1084,-6.328979E-05
289.2084,-6.324553E-05
289.3084,-6.319468E-05
289.4084,-6.317678E-05
289.5085,-6.316737E-05
289.6085,-6.311839E-05
289.7085,-6.310616E-05
289.8085,-6.306848E-05
289.9085,-6.30374E-05
290.0085,-6.301385E-05
290.1085,-6.298184E-05
290.2085,-6.292251E-05
290.3085,-6.291592E-05
290.4085,-6.290933E-05
290.5085,-6.284058E-05
290.6085,-6.28274E-05
290.7085,-6.279821E-05
290.8085,-6.27869E-05
290.9085,-6.278314E-05
291.0085,-6.273228E-05
291.1086,-6.267201E-05
291.2086,-6.265695E-05
291.3086,-6.262681E-05
291.4086,-6.261362E-05
291.5086,-6.256936E-05
291.6086,-6.25411E-05
291.7086,-6.248555E-05
291.8086,-6.249308E-05
291.9086,-6.244223E-05
292.0086,-6.239608E-05
292.1086,-6.23942E-05
292.2086,-6.2349E-05
292.3086,-6.230191E-05
292.4086,-6.228402E-05
292.5086,-6.224541E-05
292.6086,-6.222846E-05
292.7086,-6.221903E-05
292.8087,-6.216253E-05
292.9087,-6.210697E-05
293.0087,-6.212769E-05
293.1087,-6.211357E-05
293.2087,-6.206366E-05
293.3087,-6.203634E-05
293.4087,-6.20015E-05
293.5087,-6.196854E-05
293.6087,-6.197231E-05
293.7087,-6.194029E-05
293.8087,-6.186871E-05
293.9087,-6.186589E-05
294.0087,-6.1848E-05
294.1087,-6.179244E-05
294.2087,-6.178395E-05
294.3087,-6.175382E-05
294.4088,-6.171239E-05
294.5088,-6.170297E-05
294.6088,-6.166059E-05
294.7088,-6.161256E-05
294.8088,-6.159467E-05
294.9088,-6.161351E-05
295.0088,-6.154099E-05
295.1088,-6.151463E-05
295.2088,-6.15118E-05
295.3088,-6.149108E-05
295.4088,-6.148825E-05
295.5088,-6.143928E-05
295.6088,-6.141292E-05
295.7088,-6.139409E-05
295.8088,-6.135359E-05
295.9088,-6.130744E-05
296.0089,-6.12839E-05
296.1089,-6.12839E-05
296.2089,-6.121139E-05
296.3089,-6.119161E-05
296.4089,-6.119255E-05
296.5089,-6.114547E-05
296.6089,-6.109932E-05
296.7089,-6.109838E-05
296.8089,-6.108425E-05
296.9089,-6.105789E-05
297.0089,-6.101645E-05
297.1089,-6.098254E-05
297.2089,-6.093357E-05
297.3089,-6.093263E-05
297.4089,-6.089402E-05
297.5089,-6.087896E-05
297.6089,-6.086766E-05
297.709,-6.081304E-05
297.809,-6.077536E-05
297.909,-6.077536E-05
298.009,-6.073675E-05
298.109,-6.072546E-05
298.209,-6.069531E-05
298.309,-6.065294E-05
298.409,-6.063222E-05
298.509,-6.06341E-05
298.609,-6.059455E-05
298.709,-6.05258E-05
298.809,-6.05437E-05
298.909,-6.053146E-05
299.009,-6.049755E-05
299.109,-6.047119E-05
299.209,-6.040338E-05
299.3091,-6.04015E-05
299.4091,-6.037702E-05
299.5091,-6.030827E-05
299.6091,-6.033369E-05
299.7091,-6.035065E-05
299.8091,-6.029979E-05
299.9091,-6.023575E-05
300.0091,-6.022257E-05
300.1091,-6.021032E-05
300.2091,-6.017736E-05
300.3091,-6.016135E-05
300.4091,-6.011333E-05
300.5091,-6.007001E-05
300.6091,-6.006718E-05
300.7091,-6.003705E-05
300.8091,-6.001351E-05
300.9091,-5.997772E-05
301.0092,-5.994664E-05
301.1092,-5.991462E-05
301.2092,-5.991368E-05
301.3092,-5.987695E-05
301.4092,-5.984211E-05
301.5092,-5.985058E-05
301.6092,-5.979879E-05
301.7092,-5.978655E-05
301.8092,-5.974888E-05
301.9092,-5.971027E-05
302.0092,-5.969049E-05
302.1092,-5.968861E-05
302.2092,-5.965282E-05
302.3092,-5.959914E-05
302.4092,-5.960385E-05
302.5092,-5.955959E-05
302.6093,-5.953511E-05
302.7093,-5.952851E-05
302.8093,-5.949743E-05
302.9093,-5.946448E-05
303.0093,-5.946353E-05
303.1093,-5.939196E-05
303.2093,-5.937124E-05
303.3093,-5.939573E-05
303.4093,-5.938725E-05
303.5093,-5.934111E-05
303.6093,-5.931191E-05
303.7093,-5.925447E-05
303.8093,-5.92168E-05
303.9093,-5.922151E-05
304.0093,-5.919043E-05
304.1093,-5.914335E-05
304.2094,-5.913769E-05
304.3094,-5.909814E-05
304.4094,-5.907271E-05
304.5094,-5.907931E-05
304.6094,-5.902469E-05
304.7094,-5.899361E-05
304.8094,-5.899173E-05
304.9094,-5.900679E-05
305.0094,-5.896348E-05
305.1094,-5.894087E-05
305.2094,-5.889944E-05
305.3094,-5.887024E-05
305.4094,-5.888154E-05
305.5094,-5.880715E-05
305.6094,-5.878643E-05
305.7094,-5.875817E-05
305.8094,-5.876383E-05
305.9095,-5.871862E-05
306.0095,-5.869602E-05
306.1095,-5.866495E-05
306.2095,-5.86414E-05
306.3095,-5.861409E-05
306.4095,-5.860279E-05
306.5095,-5.854252E-05
306.6095,-5.851333E-05
306.7095,-5.851239E-05
306.8095,-5.847943E-05
306.9095,-5.84879E-05
307.0095,-5.84474E-05
307.1095,-5.839844E-05
307.2095,-5.838902E-05
307.3095,-5.840126E-05
307.4095,-5.836547E-05
307.5096,-5.835229E-05
307.6096,-5.832121E-05
307.7096,-5.829861E-05
307.8096,-5.827224E-05
307.9096,-5.828072E-05
308.0096,-5.820632E-05
308.1096,-5.817336E-05
308.2096,-5.817619E-05
308.3096,-5.814417E-05
308.4096,-5.813193E-05
308.5096,-5.808295E-05
308.6096,-5.804152E-05
308.7096,-5.804623E-05
308.8096,-5.804341E-05
308.9096,-5.799914E-05
309.0096,-5.79756E-05
309.1096,-5.795864E-05
309.2097,-5.790026E-05
309.3097,-5.790402E-05
309.4097,-5.788048E-05
309.5097,-5.78381E-05
309.6097,-5.781927E-05
309.7097,-5.779573E-05
309.8097,-5.776465E-05
309.9097,-5.776936E-05
310.0097,-5.773263E-05
310.1097,-5.769685E-05
310.2097,-5.765447E-05
310.3097,-5.765635E-05
310.4097,-5.762151E-05
310.5097,-5.761774E-05
310.6097,-5.757819E-05
310.7097,-5.752451E-05
310.8098,-5.754146E-05
310.9098,-5.751415E-05
311.0098,-5.749343E-05
311.1098,-5.743693E-05
311.2098,-5.741621E-05
311.3098,-5.740679E-05
311.4098,-5.741245E-05
311.5098,-5.739361E-05
311.6098,-5.730226E-05
311.7098,-5.729567E-05
311.8098,-5.730697E-05
311.9098,-5.726741E-05
312.0098,-5.722033E-05
312.1098,-5.720338E-05
312.2098,-5.718078E-05
312.3098,-5.718831E-05
312.4099,-5.712898E-05
312.5099,-5.706965E-05
312.6099,-5.708189E-05
312.7099,-5.70753E-05
312.8099,-5.704328E-05
312.9099,-5.700656E-05
313.0099,-5.697642E-05
313.1099,-5.695759E-05
313.2099,-5.691521E-05
313.3099,-5.690768E-05
313.4099,-5.688602E-05
313.5099,-5.687565E-05
313.6099,-5.684929E-05
313.7099,-5.680032E-05
313.8099,-5.67796E-05
313.9099,-5.67909E-05
314.0099,-5.674005E-05
314.11,-5.672969E-05
314.21,-5.670237E-05
314.31,-5.66713E-05
314.41,-5.666471E-05
314.51,-5.664022E-05
314.61,-5.659219E-05
314.71,-5.658654E-05
314.81,-5.659408E-05
314.91,-5.657524E-05
315.01,-5.656206E-05
315.11,-5.651026E-05
315.21,-5.645564E-05
315.31,-5.644905E-05
315.41,-5.645094E-05
315.51,-5.641421E-05
315.61,-5.639725E-05
315.7101,-5.639255E-05
315.8101,-5.633981E-05
315.9101,-5.630214E-05
316.0101,-5.629837E-05
316.1101,-5.627672E-05
316.2101,-5.626164E-05
316.3101,-5.623716E-05
316.4101,-5.617312E-05
316.5101,-5.615899E-05
316.6101,-5.617689E-05
316.7101,-5.613357E-05
316.8101,-5.611285E-05
316.9101,-5.60733E-05
317.0101,-5.606294E-05
317.1101,-5.604411E-05
317.2101,-5.603469E-05
317.3102,-5.600738E-05
317.4102,-5.596029E-05
317.5102,-5.5965E-05
317.6102,-5.592545E-05
317.7102,-5.592451E-05
317.8102,-5.590379E-05
317.9102,-5.58567E-05
318.0102,-5.582563E-05
318.1102,-5.58228E-05
318.2102,-5.580396E-05
318.3102,-5.578702E-05
318.4102,-5.576347E-05
318.5102,-5.571544E-05
318.6102,-5.57258E-05
318.7102,-5.571544E-05
318.8102,-5.567401E-05
318.9102,-5.56514E-05
319.0103,-5.564764E-05
319.1103,-5.56354E-05
319.2103,-5.560997E-05
319.3103,-5.558266E-05
319.4103,-5.554405E-05
319.5103,-5.551485E-05
319.6103,-5.55271E-05
319.7103,-5.546118E-05
319.8103,-5.544234E-05
319.9103,-5.544799E-05
320.0103,-5.543198E-05
320.1103,-5.540844E-05
320.2103,-5.537265E-05
320.3103,-5.533592E-05
320.4103,-5.531897E-05
320.5103,-5.528507E-05
320.6104,-5.528507E-05
320.7104,-5.522857E-05
320.8104,-5.523516E-05
320.9104,-5.519467E-05
321.0104,-5.51683E-05
321.1104,-5.516547E-05
321.2104,-5.512968E-05
321.3104,-5.509861E-05
321.4104,-5.510991E-05
321.5104,-5.507224E-05
321.6104,-5.505717E-05
321.7104,-5.504116E-05
321.8104,-5.499219E-05
321.9104,-5.495358E-05
322.0104,-5.496206E-05
322.1104,-5.494322E-05
322.2104,-5.490649E-05
322.3105,-5.490555E-05
322.4105,-5.485847E-05
322.5105,-5.483116E-05
322.6105,-5.482174E-05
322.7105,-5.479066E-05
322.8105,-5.476523E-05
322.9105,-5.476241E-05
323.0105,-5.475582E-05
323.1105,-5.471061E-05
323.2105,-5.468142E-05
323.3105,-5.464093E-05
323.4105,-5.463904E-05
323.5105,-5.465223E-05
323.6105,-5.461079E-05
323.7105,-5.456935E-05
323.8105,-5.45477E-05
323.9106,-5.453357E-05
324.0106,-5.451473E-05
324.1106,-5.449496E-05
324.2106,-5.445635E-05
324.3106,-5.443186E-05
324.4106,-5.443186E-05
324.5106,-5.44328E-05
324.6106,-5.437818E-05
324.7106,-5.434805E-05
324.8106,-5.432074E-05
324.9106,-5.43085E-05
325.0106,-5.431697E-05
325.1106,-5.42972E-05
325.2106,-5.422751E-05
325.3106,-5.421809E-05
325.4106,-5.420585E-05
325.5107,-5.418607E-05
325.6107,-5.418419E-05
325.7107,-5.413239E-05
325.8107,-5.409943E-05
325.9107,-5.410508E-05
326.0107,-5.40919E-05
326.1107,-5.406176E-05
326.2107,-5.403727E-05
326.3107,-5.402786E-05
326.4107,-5.399113E-05
326.5107,-5.40062E-05
326.6107,-5.39657E-05
326.7107,-5.392898E-05
326.8107,-5.39092E-05
326.9107,-5.391014E-05
327.0107,-5.386871E-05
327.1107,-5.387342E-05
327.2108,-5.382256E-05
327.3108,-5.380844E-05
327.4108,-5.384046E-05
327.5108,-5.382445E-05
327.6108,-5.374817E-05
327.7108,-5.375005E-05
327.8108,-5.371426E-05
327.9108,-5.36766E-05
328.0108,-5.368601E-05
328.1108,-5.366247E-05
328.2108,-5.36135E-05
328.3108,-5.361067E-05
328.4108,-5.357206E-05
328.5108,-5.355228E-05
328.6108,-5.357018E-05
328.7108,-5.354569E-05
328.8109,-5.347601E-05
328.9109,-5.348354E-05
329.0109,-5.34534E-05
329.1109,-5.345811E-05
329.2109,-5.344022E-05
329.3109,-5.340914E-05
329.4109,-5.335547E-05
329.5109,-5.338466E-05
329.6109,-5.336488E-05
329.7109,-5.333381E-05
329.8109,-5.33225E-05
329.9109,-5.3266E-05
330.0109,-5.32434E-05
330.1109,-5.326317E-05
330.2109,-5.321703E-05
330.3109,-5.318784E-05
330.4109,-5.317748E-05
330.511,-5.315111E-05
330.611,-5.315581E-05
330.711,-5.312097E-05
330.811,-5.30833E-05
330.911,-5.305128E-05
331.011,-5.305411E-05
331.111,-5.30494E-05
331.211,-5.300326E-05
331.311,-5.300608E-05
331.411,-5.29703E-05
331.511,-5.295334E-05
331.611,-5.295617E-05
331.711,-5.291002E-05
331.811,-5.290249E-05
331.911,-5.291285E-05
332.011,-5.288366E-05
332.1111,-5.282244E-05
332.2111,-5.28215E-05
332.3111,-5.280455E-05
332.4111,-5.278383E-05
332.5111,-5.278383E-05
332.6111,-5.273958E-05
332.7111,-5.270567E-05
332.8111,-5.270661E-05
332.9111,-5.267836E-05
333.0111,-5.264728E-05
333.1111,-5.263692E-05
333.2111,-5.264351E-05
333.3111,-5.262279E-05
333.4111,-5.258984E-05
333.5111,-5.257288E-05
333.6111,-5.253993E-05
333.7112,-5.254557E-05
333.8112,-5.252957E-05
333.9112,-5.246082E-05
334.0112,-5.245988E-05
334.1112,-5.2458E-05
334.2112,-5.244293E-05
334.3112,-5.241373E-05
334.4112,-5.240432E-05
334.5112,-5.238831E-05
334.6112,-5.239113E-05
334.7112,-5.237324E-05
334.8112,-5.230543E-05
334.9112,-5.227624E-05
335.0112,-5.228754E-05
335.1112,-5.22574E-05
335.2112,-5.223951E-05
335.3112,-5.223292E-05
335.4113,-5.216417E-05
335.5113,-5.216605E-05
335.6113,-5.215664E-05
335.7113,-5.212933E-05
335.8113,-5.210955E-05
335.9113,-5.209825E-05
336.0113,-5.207565E-05
336.1113,-5.205493E-05
336.2113,-5.205399E-05
336.3113,-5.200125E-05
336.4113,-5.198995E-05
336.5113,-5.199466E-05
336.6113,-5.196735E-05
336.7113,-5.19504E-05
336.8113,-5.191932E-05
336.9113,-5.189295E-05
337.0114,-5.188071E-05
337.1114,-5.189578E-05
337.2114,-5.184681E-05
337.3114,-5.183739E-05
337.4114,-5.181197E-05
337.5114,-5.177806E-05
337.6114,-5.178183E-05
337.7114,-5.177241E-05
337.8114,-5.175169E-05
337.9114,-5.171403E-05
338.0114,-5.171967E-05
338.1114,-5.168201E-05
338.2114,-5.168954E-05
338.3114,-5.165752E-05
338.4114,-5.162174E-05
338.5114,-5.159348E-05
338.6115,-5.16029E-05
338.7115,-5.159442E-05
338.8115,-5.156052E-05
338.9115,-5.154263E-05
339.0115,-5.151909E-05
339.1115,-5.148518E-05
339.2115,-5.147954E-05
339.3115,-5.146917E-05
339.4115,-5.145316E-05
339.5115,-5.141927E-05
339.6115,-5.139572E-05
339.7115,-5.139949E-05
339.8115,-5.137783E-05
339.9115,-5.131661E-05
340.0115,-5.133263E-05
340.1115,-5.132886E-05
340.2115,-5.13072E-05
340.3116,-5.124881E-05
340.4116,-5.126388E-05
340.5116,-5.12441E-05
340.6116,-5.121397E-05
340.7116,-5.121491E-05
340.8116,-5.118477E-05
340.9116,-5.117724E-05
341.0116,-5.114993E-05
341.1116,-5.110943E-05
341.2116,-5.110284E-05
341.3116,-5.109813E-05
341.4116,-5.110096E-05
341.5116,-5.104822E-05
341.6116,-5.102844E-05
341.7116,-5.10049E-05
341.8116,-5.099548E-05
341.9117,-5.101526E-05
342.0117,-5.092486E-05
342.1117,-5.092956E-05
342.2117,-5.098795E-05
342.3117,-5.096441E-05
342.4117,-5.088813E-05
342.5117,-5.086836E-05
342.6117,-5.090414E-05
342.7117,-5.084481E-05
342.8117,-5.086082E-05
342.9117,-5.081185E-05
343.0117,-5.077324E-05
343.1117,-5.077135E-05
343.2117,-5.076288E-05
343.3117,-5.070543E-05
343.4117,-5.073463E-05
343.5117,-5.070731E-05
343.6118,-5.069978E-05
343.7118,-5.069978E-05
343.8118,-5.064893E-05
343.9118,-5.061879E-05
344.0118,-5.060937E-05
344.1118,-5.061031E-05
344.2118,-5.057548E-05
344.3118,-5.056417E-05
344.4118,-5.054722E-05
344.5118,-5.053498E-05
344.6118,-5.049731E-05
344.7118,-5.047376E-05
344.8118,-5.04474E-05
344.9118,-5.043138E-05
345.0118,-5.041726E-05
345.1118,-5.042103E-05
345.2119,-5.039937E-05
345.3119,-5.037489E-05
345.4119,-5.033251E-05
345.5119,-5.035322E-05
345.6119,-5.034946E-05
345.7119,-5.029107E-05
345.8119,-5.028354E-05
345.9119,-5.028448E-05
346.0119,-5.026564E-05
346.1119,-5.025717E-05
346.2119,-5.022609E-05
346.3119,-5.018748E-05
346.4119,-5.016488E-05
346.5119,-5.017335E-05
346.6119,-5.013757E-05
346.7119,-5.012909E-05
346.812,-5.013286E-05
346.912,-5.009236E-05
347.012,-5.008483E-05
347.112,-5.009331E-05
347.212,-5.003774E-05
347.312,-5.002927E-05
347.412,-5.002645E-05
347.512,-5.001608E-05
347.612,-4.998407E-05
347.712,-4.998595E-05
347.812,-4.994734E-05
347.912,-4.992285E-05
348.012,-4.994357E-05
348.112,-4.989931E-05
348.212,-4.987953E-05
348.312,-4.984846E-05
348.412,-4.98541E-05
348.5121,-4.983433E-05
348.6121,-4.980984E-05
348.7121,-4.977689E-05
348.8121,-4.97411E-05
348.9121,-4.977217E-05
349.0121,-4.976558E-05
349.1121,-4.972509E-05
349.2121,-4.971756E-05
349.3121,-4.968083E-05
349.4121,-4.966482E-05
349.5121,-4.966953E-05
349.6121,-4.963751E-05
349.7121,-4.958006E-05
349.8121,-4.961302E-05
349.9121,-4.960643E-05
350.0121,-4.956876E-05
350.1122,-4.957441E-05
350.2122,-4.953863E-05
350.3122,-4.953768E-05
350.4122,-4.952262E-05
350.5122,-4.948495E-05
350.6122,-4.947082E-05
350.7122,-4.945293E-05
350.8122,-4.948683E-05
350.9122,-4.941526E-05
351.0122,-4.937665E-05
351.1122,-4.940208E-05
351.2122,-4.936723E-05
351.3122,-4.937759E-05
351.4122,-4.933239E-05
351.5122,-4.927494E-05
351.6122,-4.926741E-05
351.7122,-4.927871E-05
351.8123,-4.923727E-05
351.9123,-4.924104E-05
352.0123,-4.919395E-05
352.1123,-4.91657E-05
352.2123,-4.91883E-05
352.3123,-4.917794E-05
352.4123,-4.912709E-05
352.5123,-4.909978E-05
352.6123,-4.912238E-05
352.7123,-4.908565E-05
352.8123,-4.907058E-05
352.9123,-4.904893E-05
353.0123,-4.904704E-05
353.1123,-4.901314E-05
353.2123,-4.902067E-05
353.3123,-4.896888E-05
353.4124,-4.895287E-05
353.5124,-4.899054E-05
353.6124,-4.896323E-05
353.7124,-4.892556E-05
353.8124,-4.88926E-05
353.9124,-4.887847E-05
354.0124,-4.887753E-05
354.1124,-4.889354E-05
354.2124,-4.888224E-05
354.3124,-4.882197E-05
354.4124,-4.882385E-05
354.5124,-4.88295E-05
354.6124,-4.879654E-05
354.7124,-4.878618E-05
354.8124,-4.875417E-05
354.9124,-4.871744E-05
355.0125,-4.875134E-05
355.1125,-4.871838E-05
355.2125,-4.86939E-05
355.3125,-4.868071E-05
355.4125,-4.865528E-05
355.5125,-4.865057E-05
355.6125,-4.864869E-05
355.7125,-4.861291E-05
355.8125,-4.858559E-05
355.9125,-4.861291E-05
356.0125,-4.857712E-05
356.1125,-4.855075E-05
356.2125,-4.853192E-05
356.3125,-4.852438E-05
356.4125,-4.851026E-05
356.5125,-4.850084E-05
356.6125,-4.848295E-05
356.7126,-4.845469E-05
356.8126,-4.843868E-05
356.9126,-4.843398E-05
357.0126,-4.839725E-05
357.1126,-4.841138E-05
357.2126,-4.837559E-05
357.3126,-4.834169E-05
357.4126,-4.835016E-05
357.5126,-4.833227E-05
357.6126,-4.83059E-05
357.7126,-4.830778E-05
357.8126,-4.827765E-05
357.9126,-4.825317E-05
358.0126,-4.828613E-05
358.1126,-4.823715E-05
358.2126,-4.820796E-05
358.3127,-4.820608E-05
358.4127,-4.819383E-05
358.5127,-4.815993E-05
358.6127,-4.815616E-05
358.7127,-4.81232E-05
358.8127,-4.809213E-05
358.9127,-4.813074E-05
359.0127,-4.812038E-05
359.1127,-4.807706E-05
359.2127,-4.806294E-05
359.3127,-4.804599E-05
359.4127,-4.801114E-05
359.5127,-4.801868E-05
359.6127,-4.80102E-05
359.7127,-4.798289E-05
359.8127,-4.797347E-05
359.9128,-4.793203E-05
360.0128,-4.790378E-05
360.1128,-4.793768E-05
360.2128,-4.789907E-05
360.3128,-4.788495E-05
360.4128,-4.786611E-05
360.5128,-4.784445E-05
360.6128,-4.784539E-05
360.7128,-4.783032E-05
360.8128,-4.779925E-05
360.9128,-4.776818E-05
361.0128,-4.777759E-05
361.1128,-4.778983E-05
361.2128,-4.77418E-05
361.3128,-4.772768E-05
361.4128,-4.771073E-05
361.5128,-4.768718E-05
361.6129,-4.769377E-05
361.7129,-4.767023E-05
361.8129,-4.76335E-05
361.9129,-4.762032E-05
362.0129,-4.761279E-05
362.1129,-4.761561E-05
362.2129,-4.758642E-05
362.3129,-4.756005E-05
362.4129,-4.753086E-05
362.5129,-4.756382E-05
362.6129,-4.752614E-05
362.7129,-4.748094E-05
362.8129,-4.748377E-05
362.9129,-4.749036E-05
363.0129,-4.745363E-05
363.1129,-4.745552E-05
363.213,-4.742067E-05
363.313,-4.738112E-05
363.413,-4.738583E-05
363.513,-4.739901E-05
363.613,-4.735287E-05
363.713,-4.734157E-05
363.813,-4.731991E-05
363.913,-4.728694E-05
364.013,-4.732462E-05
364.113,-4.729354E-05
364.213,-4.723327E-05
364.313,-4.724928E-05
364.413,-4.724739E-05
364.513,-4.721726E-05
364.613,-4.720878E-05
364.713,-4.717677E-05
364.813,-4.716075E-05
364.9131,-4.718618E-05
365.0131,-4.715228E-05
365.1131,-4.711649E-05
365.2131,-4.712591E-05
365.3131,-4.712403E-05
365.4131,-4.711084E-05
365.5131,-4.707411E-05
365.6131,-4.706753E-05
365.7131,-4.702985E-05
365.8131,-4.703833E-05
365.9131,-4.703456E-05
366.0131,-4.698653E-05
366.1131,-4.696488E-05
366.2131,-4.695922E-05
366.3131,-4.693851E-05
366.4131,-4.695546E-05
366.5132,-4.692815E-05
366.6132,-4.688577E-05
366.7132,-4.688389E-05
366.8132,-4.688671E-05
366.9132,-4.68594E-05
367.0132,-4.68594E-05
367.1132,-4.681985E-05
367.2132,-4.680478E-05
367.3132,-4.680101E-05
367.4132,-4.677559E-05
367.5132,-4.674545E-05
367.6132,-4.675299E-05
367.7132,-4.675392E-05
367.8132,-4.673415E-05
367.9132,-4.670402E-05
368.0132,-4.671531E-05
368.1133,-4.670778E-05
368.2133,-4.669931E-05
368.3133,-4.665881E-05
368.4133,-4.667106E-05
368.5133,-4.66654E-05
368.6133,-4.666634E-05
368.7133,-4.66381E-05
368.8133,-4.660137E-05
368.9133,-4.659948E-05
369.0133,-4.658819E-05
369.1133,-4.653638E-05
369.2133,-4.654769E-05
369.3133,-4.650907E-05
369.4133,-4.648647E-05
369.5133,-4.649966E-05
369.6133,-4.648459E-05
369.7133,-4.64328E-05
369.8134,-4.647518E-05
369.9134,-4.642244E-05
370.0134,-4.640643E-05
370.1134,-4.639701E-05
370.2134,-4.63763E-05
370.3134,-4.636405E-05
370.4134,-4.633297E-05
370.5134,-4.631226E-05
370.6134,-4.633674E-05
370.7134,-4.634145E-05
370.8134,-4.630284E-05
370.9134,-4.626423E-05
371.0134,-4.627176E-05
371.1134,-4.62614E-05
371.2134,-4.622656E-05
371.3134,-4.623786E-05
371.4135,-4.621431E-05
371.5135,-4.621808E-05
371.6135,-4.621902E-05
371.7135,-4.618324E-05
371.8135,-4.614839E-05
371.9135,-4.615028E-05
372.0135,-4.615781E-05
372.1135,-4.612202E-05
372.2135,-4.609848E-05
372.3135,-4.607682E-05
372.4135,-4.604763E-05
372.5135,-4.605704E-05
372.6135,-4.606269E-05
372.7135,-4.60109E-05
372.8135,-4.601749E-05
372.9135,-4.60109E-05
373.0135,-4.598736E-05
373.1136,-4.596193E-05
373.2136,-4.594686E-05
373.3136,-4.593274E-05
373.4136,-4.59431E-05
373.5136,-4.593274E-05
373.6136,-4.589884E-05
373.7136,-4.587153E-05
373.8136,-4.588565E-05
373.9136,-4.586493E-05
374.0136,-4.585363E-05
374.1136,-4.584704E-05
374.2136,-4.577923E-05
374.3136,-4.581314E-05
374.4136,-4.582161E-05
374.5136,-4.577547E-05
374.6136,-4.573026E-05
374.7137,-4.573121E-05
374.8137,-4.572273E-05
374.9137,-4.572179E-05
375.0137,-4.572461E-05
375.1137,-4.564456E-05
375.2137,-4.565869E-05
375.3137,-4.564927E-05
375.4137,-4.564551E-05
375.5137,-4.564362E-05
375.6137,-4.562008E-05
375.7137,-4.55956E-05
375.8137,-4.558806E-05
375.9137,-4.559465E-05
376.0137,-4.556264E-05
376.1137,-4.554945E-05
376.2137,-4.552308E-05
376.3138,-4.552967E-05
376.4138,-4.551932E-05
376.5138,-4.550237E-05
376.6138,-4.543645E-05
376.7138,-4.545904E-05
376.8138,-4.545434E-05
376.9138,-4.54242E-05
377.0138,-4.541008E-05
377.1138,-4.540349E-05
377.2138,-4.536958E-05
377.3138,-4.536299E-05
377.4138,-4.536299E-05
377.5138,-4.535263E-05
377.6138,-4.534321E-05
377.7138,-4.531685E-05
377.8138,-4.529707E-05
377.9138,-4.528483E-05
378.0139,-4.528483E-05
378.1139,-4.524527E-05
378.2139,-4.523115E-05
378.3139,-4.525092E-05
378.4139,-4.522738E-05
378.5139,-4.519913E-05
378.6139,-4.52076E-05
378.7139,-4.516617E-05
378.8139,-4.517558E-05
378.9139,-4.5169E-05
379.0139,-4.515581E-05
379.1139,-4.513509E-05
379.2139,-4.512284E-05
379.3139,-4.510213E-05
379.4139,-4.509177E-05
379.5139,-4.506729E-05
379.614,-4.503903E-05
379.714,-4.503527E-05
379.814,-4.505504E-05
379.914,-4.500136E-05
380.014,-4.498818E-05
380.114,-4.498818E-05
380.214,-4.497311E-05
380.314,-4.495145E-05
380.414,-4.495334E-05
380.514,-4.492131E-05
380.614,-4.490343E-05
380.714,-4.493544E-05
380.814,-4.4894E-05
380.914,-4.486105E-05
381.014,-4.487894E-05
381.114,-4.48667E-05
381.2141,-4.485257E-05
381.3141,-4.485539E-05
381.4141,-4.480643E-05
381.5141,-4.480549E-05
381.6141,-4.482338E-05
381.7141,-4.47923E-05
381.8141,-4.478571E-05
381.9141,-4.477723E-05
382.0141,-4.472544E-05
382.1141,-4.474615E-05
382.2141,-4.474333E-05
382.3141,-4.471507E-05
382.4141,-4.467081E-05
382.5141,-4.470095E-05
382.6141,-4.469813E-05
382.7141,-4.466423E-05
382.8141,-4.465669E-05
382.9142,-4.462467E-05
383.0142,-4.46322E-05
383.1142,-4.46435E-05
383.2142,-4.4587E-05
383.3142,-4.461055E-05
383.4142,-4.464633E-05
383.5142,-4.464162E-05
383.6142,-4.456063E-05
383.7142,-4.455687E-05
383.8142,-4.45418E-05
383.9142,-4.452767E-05
384.0142,-4.455498E-05
384.1142,-4.450319E-05
384.2142,-4.450601E-05
384.3142,-4.448059E-05
384.4142,-4.446269E-05
384.5143,-4.445987E-05
384.6143,-4.445893E-05
384.7143,-4.442973E-05
384.8143,-4.440901E-05
384.9143,-4.442597E-05
385.0143,-4.440431E-05
385.1143,-4.439489E-05
385.2143,-4.436193E-05
385.3143,-4.436005E-05
385.4143,-4.435251E-05
385.5143,-4.435346E-05
385.6143,-4.434027E-05
385.7143,-4.435722E-05
385.8143,-4.434121E-05
385.9143,-4.428847E-05
386.0143,-4.428471E-05
386.1143,-4.431955E-05
386.2144,-4.434498E-05
386.3144,-4.425928E-05
386.4144,-4.426399E-05
386.5144,-4.425646E-05
386.6144,-4.423291E-05
386.7144,-4.423008E-05
386.8144,-4.422443E-05
386.9144,-4.418394E-05
387.0144,-4.417453E-05
387.1144,-4.41604E-05
387.2144,-4.414816E-05
387.3144,-4.415475E-05
387.4144,-4.410107E-05
387.5144,-4.409353E-05
387.6144,-4.409824E-05
387.7144,-4.410578E-05
387.8145,-4.408694E-05
387.9145,-4.405681E-05
388.0145,-4.405869E-05
388.1145,-4.40408E-05
388.2145,-4.405869E-05
388.3145,-4.403327E-05
388.4145,-4.399277E-05
388.5145,-4.400501E-05
388.6145,-4.400124E-05
388.7145,-4.399089E-05
388.8145,-4.397958E-05
388.9145,-4.396546E-05
389.0145,-4.394945E-05
389.1145,-4.397111E-05
389.2145,-4.391743E-05
389.3145,-4.392026E-05
389.4146,-4.38986E-05
389.5146,-4.39099E-05
389.6146,-4.388447E-05
389.7146,-4.387223E-05
389.8146,-4.385057E-05
389.9146,-4.384303E-05
390.0146,-4.384397E-05
390.1146,-4.38242E-05
390.2146,-4.380536E-05
390.3146,-4.379972E-05
390.4146,-4.379501E-05
390.5146,-4.378277E-05
390.6146,-4.375639E-05
390.7146,-4.373097E-05
390.8146,-4.375263E-05
390.9146,-4.373851E-05
391.0146,-4.37272E-05
391.1147,-4.367447E-05
391.2147,-4.367635E-05
391.3147,-4.369801E-05
391.4147,-4.367447E-05
391.5147,-4.363021E-05
391.6147,-4.364433E-05
391.7147,-4.36415E-05
391.8147,-4.363397E-05
391.9147,-4.365281E-05
392.0147,-4.360101E-05
392.1147,-4.359819E-05
392.2147,-4.360666E-05
392.3147,-4.357558E-05
392.4147,-4.354074E-05
392.5147,-4.354451E-05
392.6147,-4.351531E-05
392.7148,-4.351437E-05
392.8148,-4.35332E-05
392.9148,-4.347858E-05
393.0148,-4.344374E-05
393.1148,-4.347199E-05
393.2148,-4.346917E-05
393.3148,-4.342585E-05
393.4148,-4.341361E-05
393.5148,-4.340325E-05
393.6148,-4.339571E-05
393.7148,-4.339477E-05
393.8148,-4.338347E-05
393.9148,-4.333827E-05
394.0148,-4.334392E-05
394.1148,-4.33458E-05
394.2148,-4.331661E-05
394.3148,-4.331849E-05
394.4149,-4.329871E-05
394.5149,-4.328647E-05
394.6149,-4.328836E-05
394.7149,-4.327612E-05
394.8149,-4.324692E-05
394.9149,-4.324315E-05
395.0149,-4.322432E-05
395.1149,-4.320736E-05
395.2149,-4.320736E-05
395.3149,-4.318476E-05
395.4149,-4.316593E-05
395.5149,-4.317817E-05
395.6149,-4.316028E-05
395.7149,-4.313391E-05
395.8149,-4.314144E-05
395.9149,-4.312544E-05
396.015,-4.312732E-05
396.115,-4.310849E-05
396.215,-4.308682E-05
396.315,-4.308588E-05
396.415,-4.311979E-05
396.515,-4.307552E-05
396.615,-4.30435E-05
396.715,-4.306046E-05
396.815,-4.303786E-05
396.915,-4.2987E-05
397.015,-4.302373E-05
397.115,-4.299548E-05
397.215,-4.298417E-05
397.315,-4.29757E-05
397.415,-4.296063E-05
397.515,-4.292579E-05
397.6151,-4.292108E-05
397.7151,-4.293238E-05
397.8151,-4.288623E-05
397.9151,-4.289754E-05
398.0151,-4.288059E-05
398.1151,-4.286457E-05
398.2151,-4.28495E-05
398.3151,-4.284292E-05
398.4151,-4.282973E-05
398.5151,-4.282314E-05
398.6151,-4.282597E-05
398.7151,-4.279677E-05
398.8151,-4.277793E-05
398.9151,-4.277135E-05
399.0151,-4.275816E-05
399.1151,-4.276381E-05
399.2151,-4.275722E-05
399.3152,-4.270636E-05
399.4152,-4.269883E-05
399.5152,-4.269789E-05
399.6152,-4.269412E-05
399.7152,-4.270071E-05
399.8152,-4.265551E-05
399.9152,-4.26395E-05
400.0152,-4.263291E-05
400.1152,-4.266022E-05
400.2152,-4.261596E-05
400.3152,-4.260278E-05
400.4152,-4.260278E-05
400.5152,-4.261502E-05
400.6152,-4.261973E-05
400.7152,-4.260937E-05
400.8152,-4.254816E-05
400.9153,-4.252555E-05
401.0153,-4.255286E-05
401.1153,-4.252555E-05
401.2153,-4.251519E-05
401.3153,-4.25086E-05
401.4153,-4.247282E-05
401.5153,-4.248035E-05
401.6153,-4.247187E-05
401.7153,-4.246058E-05
401.8153,-4.247282E-05
401.9153,-4.244457E-05
402.0153,-4.240689E-05
402.1153,-4.241632E-05
402.2153,-4.240313E-05
402.3153,-4.238241E-05
402.4153,-4.237205E-05
402.5154,-4.235133E-05
402.6154,-4.231837E-05
402.7154,-4.233156E-05
402.8154,-4.234003E-05
402.9154,-4.230047E-05
403.0154,-4.228729E-05
403.1154,-4.226375E-05
403.2154,-4.225904E-05
403.3154,-4.226375E-05
403.4154,-4.224963E-05
403.5154,-4.222043E-05
403.6154,-4.221572E-05
403.7154,-4.221855E-05
403.8154,-4.219312E-05
403.9154,-4.219877E-05
404.0154,-4.215545E-05
404.1154,-4.217335E-05
404.2155,-4.21837E-05
404.3155,-4.218182E-05
404.4155,-4.214886E-05
404.5155,-4.214415E-05
404.6155,-4.212155E-05
404.7155,-4.210178E-05
404.8155,-4.208859E-05
404.9155,-4.209895E-05
405.0155,-4.205375E-05
405.1155,-4.205845E-05
405.2155,-4.206034E-05
405.3155,-4.203209E-05
405.4155,-4.201796E-05
405.5155,-4.200666E-05
405.6155,-4.198688E-05
405.7155,-4.199818E-05
405.8156,-4.198783E-05
405.9156,-4.198594E-05
406.0156,-4.199724E-05
406.1156,-4.194921E-05
406.2156,-4.192661E-05
406.3156,-4.192002E-05
406.4156,-4.19219E-05
406.5156,-4.190213E-05
406.6156,-4.188989E-05
406.7156,-4.186446E-05
406.8156,-4.184468E-05
406.9156,-4.186257E-05
407.0156,-4.186163E-05
407.1156,-4.182396E-05
407.2156,-4.181455E-05
407.3156,-4.184563E-05
407.4156,-4.179665E-05
407.5157,-4.179665E-05
407.6157,-4.177782E-05
407.7157,-4.176558E-05
407.8157,-4.175427E-05
407.9157,-4.176652E-05
408.0157,-4.174486E-05
408.1157,-4.171567E-05
408.2157,-4.172696E-05
408.3157,-4.169212E-05
408.4157,-4.170907E-05
408.5157,-4.171567E-05
408.6157,-4.168082E-05
408.7157,-4.165257E-05
408.8157,-4.166293E-05
408.9157,-4.164786E-05
409.0157,-4.163844E-05
409.1158,-4.162526E-05
409.2158,-4.15923E-05
409.3158,-4.159512E-05
409.4158,-4.161961E-05
409.5158,-4.158853E-05
409.6158,-4.156028E-05
409.7158,-4.157441E-05
409.8158,-4.153862E-05
409.9158,-4.15405E-05
410.0158,-4.155275E-05
410.1158,-4.153862E-05
410.2158,-4.149812E-05
410.3158,-4.151507E-05
410.4158,-4.15066E-05
410.5158,-4.147364E-05
410.6158,-4.147364E-05
410.7159,-4.141431E-05
410.8159,-4.144162E-05
410.9159,-4.14548E-05
411.0159,-4.142655E-05
411.1159,-4.139171E-05
411.2159,-4.139736E-05
411.3159,-4.138982E-05
411.4159,-4.137947E-05
411.5159,-4.136252E-05
411.6159,-4.133897E-05
411.7159,-4.134556E-05
411.8159,-4.137099E-05
411.9159,-4.132861E-05
412.0159,-4.129942E-05
412.1159,-4.131919E-05
412.2159,-4.130978E-05
412.3159,-4.129283E-05
412.416,-4.128906E-05
412.516,-4.127399E-05
412.616,-4.126834E-05
412.716,-4.128718E-05
412.816,-4.127211E-05
412.916,-4.123161E-05
413.016,-4.124009E-05
413.116,-4.124668E-05
413.216,-4.120148E-05
413.316,-4.121749E-05
413.416,-4.121655E-05
413.516,-4.118924E-05
413.616,-4.118924E-05
413.716,-4.118641E-05
413.816,-4.116098E-05
413.916,-4.11591E-05
414.0161,-4.116475E-05
414.1161,-4.110542E-05
414.2161,-4.109695E-05
414.3161,-4.109977E-05
414.4161,-4.110542E-05
414.5161,-4.11139E-05
414.6161,-4.108282E-05
414.7161,-4.105834E-05
414.8161,-4.106304E-05
414.9161,-4.107811E-05
415.0161,-4.103197E-05
415.1161,-4.101596E-05
415.2161,-4.101407E-05
415.3161,-4.098111E-05
415.4161,-4.099806E-05
415.5161,-4.10056E-05
415.6161,-4.09604E-05
415.7162,-4.095098E-05
415.8162,-4.09651E-05
415.9162,-4.094815E-05
416.0162,-4.092555E-05
416.1162,-4.091048E-05
416.2162,-4.088976E-05
416.3162,-4.090013E-05
416.4162,-4.088505E-05
416.5162,-4.087187E-05
416.6162,-4.08568E-05
416.7162,-4.088411E-05
416.8162,-4.083985E-05
416.9162,-4.085304E-05
417.0162,-4.084927E-05
417.1162,-4.081725E-05
417.2162,-4.079842E-05
417.3163,-4.080783E-05
417.4163,-4.080313E-05
417.5163,-4.078523E-05
417.6163,-4.078147E-05
417.7163,-4.072967E-05
417.8163,-4.073909E-05
417.9163,-4.075321E-05
418.0163,-4.072213E-05
418.1163,-4.073156E-05
418.2163,-4.072025E-05
418.3163,-4.068541E-05
418.4163,-4.067599E-05
418.5163,-4.068447E-05
418.6163,-4.067694E-05
418.7163,-4.065716E-05
418.8163,-4.064303E-05
418.9164,-4.063926E-05
419.0164,-4.064209E-05
419.1164,-4.063268E-05
419.2164,-4.060819E-05
419.3164,-4.06016E-05
419.4164,-4.05903E-05
419.5164,-4.057334E-05
419.6164,-4.060254E-05
419.7164,-4.057146E-05
419.8164,-4.054415E-05
419.9164,-4.054038E-05
420.0164,-4.054791E-05
420.1164,-4.053097E-05
420.2164,-4.052437E-05
420.3164,-4.052249E-05
420.4164,-4.048765E-05
420.5164,-4.047352E-05
420.6165,-4.047728E-05
420.7165,-4.046693E-05
420.8165,-4.047163E-05
420.9165,-4.046787E-05
421.0165,-4.042455E-05
421.1165,-4.045468E-05
421.2165,-4.043302E-05
421.3165,-4.040666E-05
421.4165,-4.041325E-05
421.5165,-4.043774E-05
421.6165,-4.039442E-05
421.7165,-4.037181E-05
421.8165,-4.037276E-05
421.9165,-4.034827E-05
422.0165,-4.035863E-05
422.1165,-4.034262E-05
422.2166,-4.031248E-05
422.3166,-4.029742E-05
422.4166,-4.03106E-05
422.5166,-4.028612E-05
422.6166,-4.028047E-05
422.7166,-4.02814E-05
422.8166,-4.026822E-05
422.9166,-4.023903E-05
423.0166,-4.023338E-05
423.1166,-4.022019E-05
423.2166,-4.021925E-05
423.3166,-4.022019E-05
423.4166,-4.018347E-05
423.5166,-4.017782E-05
423.6166,-4.017217E-05
423.7166,-4.016087E-05
423.8167,-4.015239E-05
423.9167,-4.012508E-05
424.0167,-4.014392E-05
424.1167,-4.014014E-05
424.2167,-4.012226E-05
424.3167,-4.010624E-05
424.4167,-4.009118E-05
424.5167,-4.010436E-05
424.6167,-4.007705E-05
424.7167,-4.006104E-05
424.8167,-4.006387E-05
424.9167,-4.005539E-05
425.0167,-4.005916E-05
425.1167,-4.004786E-05
425.2167,-4.001113E-05
425.3167,-4.002055E-05
425.4167,-4.002714E-05
425.5168,-3.9997E-05
425.6168,-3.998099E-05
425.7168,-3.998759E-05
425.8168,-3.994332E-05
425.9168,-3.99292E-05
426.0168,-3.993768E-05
426.1168,-3.995086E-05
426.2168,-3.991978E-05
426.3168,-3.991413E-05
426.4168,-3.989341E-05
426.5168,-3.99E-05
426.6168,-3.990848E-05
426.7168,-3.986328E-05
426.8168,-3.98548E-05
426.9168,-3.988117E-05
427.0168,-3.986422E-05
427.1169,-3.982184E-05
427.2169,-3.984633E-05
427.3169,-3.982184E-05
427.4169,-3.981996E-05
427.5169,-3.980772E-05
427.6169,-3.979548E-05
427.7169,-3.977947E-05
427.8169,-3.978794E-05
427.9169,-3.977099E-05
428.0169,-3.975498E-05
428.1169,-3.975215E-05
428.2169,-3.972955E-05
428.3169,-3.973709E-05
428.4169,-3.974839E-05
428.5169,-3.970413E-05
428.6169,-3.968529E-05
428.7169,-3.970978E-05
428.817,-3.968623E-05
428.917,-3.964386E-05
429.017,-3.963538E-05
429.117,-3.96448E-05
429.217,-3.966457E-05
429.317,-3.96269E-05
429.417,-3.964197E-05
429.517,-3.960148E-05
429.617,-3.96156E-05
429.717,-3.962879E-05
429.817,-3.957887E-05
429.917,-3.957229E-05
430.017,-3.956098E-05
430.117,-3.956192E-05
430.217,-3.95478E-05
430.317,-3.953461E-05
430.4171,-3.949883E-05
430.5171,-3.9496E-05
430.6171,-3.950636E-05
430.7171,-3.947152E-05
430.8171,-3.947434E-05
430.9171,-3.948941E-05
431.0171,-3.944986E-05
431.1171,-3.945363E-05
431.2171,-3.945363E-05
431.3171,-3.942349E-05
431.4171,-3.940465E-05
431.5171,-3.941878E-05
431.6171,-3.941407E-05
431.7171,-3.940089E-05
431.8171,-3.942066E-05
431.9171,-3.939241E-05
432.0172,-3.938111E-05
432.1172,-3.942537E-05
432.2172,-3.939524E-05
432.3172,-3.934062E-05
432.4172,-3.936416E-05
432.5172,-3.935098E-05
432.6172,-3.932555E-05
432.7172,-3.934062E-05
432.8172,-3.932178E-05
432.9172,-3.928129E-05
433.0172,-3.929541E-05
433.1172,-3.931519E-05
433.2172,-3.928223E-05
433.3172,-3.925586E-05
433.4172,-3.925021E-05
433.5172,-3.924456E-05
433.6172,-3.92521E-05
433.7173,-3.923608E-05
433.8173,-3.921537E-05
433.9173,-3.921913E-05
434.0173,-3.920029E-05
434.1173,-3.918712E-05
434.2173,-3.918523E-05
434.3173,-3.915604E-05
434.4173,-3.915321E-05
434.5173,-3.917205E-05
434.6173,-3.914191E-05
434.7173,-3.912684E-05
434.8173,-3.913061E-05
434.9173,-3.911743E-05
435.0173,-3.911083E-05
435.1173,-3.911931E-05
435.2173,-3.909294E-05
435.3174,-3.905715E-05
435.4174,-3.906845E-05
435.5174,-3.908352E-05
435.6174,-3.90694E-05
435.7174,-3.906564E-05
435.8174,-3.903738E-05
435.9174,-3.902326E-05
436.0174,-3.904491E-05
436.1174,-3.903644E-05
436.2174,-3.898558E-05
436.3174,-3.900536E-05
436.4174,-3.898464E-05
436.5174,-3.899123E-05
436.6174,-3.8995E-05
436.7174,-3.89611E-05
436.8174,-3.893096E-05
436.9174,-3.89611E-05
437.0175,-3.895357E-05
437.1175,-3.89272E-05
437.2175,-3.892249E-05
437.3175,-3.889424E-05
437.4175,-3.889047E-05
437.5175,-3.891496E-05
437.6175,-3.890177E-05
437.7175,-3.888011E-05
437.8175,-3.885468E-05
437.9175,-3.885563E-05
438.0175,-3.885468E-05
438.1175,-3.884715E-05
438.2175,-3.882361E-05
438.3175,-3.881702E-05
438.4175,-3.881513E-05
438.5175,-3.881702E-05
438.6176,-3.880948E-05
438.7176,-3.880195E-05
438.8176,-3.87897E-05
438.9176,-3.876804E-05
439.0176,-3.879912E-05
439.1176,-3.875392E-05
439.2176,-3.873038E-05
439.3176,-3.876522E-05
439.4176,-3.873697E-05
439.5176,-3.871248E-05
439.6176,-3.874827E-05
439.7176,-3.874921E-05
439.8176,-3.870683E-05
439.9176,-3.870589E-05
440.0176,-3.870777E-05
440.1176,-3.870118E-05
440.2177,-3.867764E-05
440.3177,-3.867199E-05
440.4177,-3.868517E-05
440.5177,-3.865975E-05
440.6177,-3.865975E-05
440.7177,-3.86249E-05
440.8177,-3.861549E-05
440.9177,-3.861078E-05
441.0177,-3.861454E-05
441.1177,-3.860418E-05
441.2177,-3.860606E-05
441.3177,-3.854768E-05
441.4177,-3.856745E-05
441.5177,-3.856275E-05
441.6177,-3.854485E-05
441.7177,-3.85279E-05
441.8177,-3.851849E-05
441.9178,-3.852037E-05
442.0178,-3.852319E-05
442.1178,-3.851566E-05
442.2178,-3.846951E-05
442.3178,-3.84827E-05
442.4178,-3.849118E-05
442.5178,-3.845822E-05
442.6178,-3.846575E-05
442.7178,-3.845162E-05
442.8178,-3.84083E-05
442.9178,-3.840642E-05
443.0178,-3.842055E-05
443.1178,-3.840171E-05
443.2178,-3.840736E-05
443.3178,-3.841019E-05
443.4178,-3.835839E-05
443.5179,-3.836122E-05
443.6179,-3.836027E-05
443.7179,-3.835934E-05
443.8179,-3.833673E-05
443.9179,-3.833485E-05
444.0179,-3.82953E-05
444.1179,-3.833296E-05
444.2179,-3.830283E-05
444.3179,-3.828399E-05
444.4179,-3.826704E-05
444.5179,-3.825951E-05
444.6179,-3.826704E-05
444.7179,-3.828023E-05
444.8179,-3.82774E-05
444.9179,-3.823785E-05
445.0179,-3.822184E-05
445.118,-3.82322E-05
445.218,-3.820206E-05
445.318,-3.821713E-05
445.418,-3.819736E-05
445.518,-3.816722E-05
445.618,-3.818135E-05
445.718,-3.818229E-05
445.818,-3.81691E-05
445.918,-3.815027E-05
446.018,-3.813803E-05
446.118,-3.815686E-05
446.218,-3.815121E-05
446.318,-3.812767E-05
446.418,-3.809565E-05
446.518,-3.808999E-05
446.618,-3.809188E-05
446.718,-3.809094E-05
446.8181,-3.807681E-05
446.9181,-3.807022E-05
447.0181,-3.80382E-05
447.1181,-3.804291E-05
447.2181,-3.807022E-05
447.3181,-3.80156E-05
447.4181,-3.80222E-05
447.5181,-3.801937E-05
447.6181,-3.800901E-05
447.7181,-3.802596E-05
447.8181,-3.800618E-05
447.9181,-3.797605E-05
448.0181,-3.798546E-05
448.1181,-3.797605E-05
448.2181,-3.796946E-05
448.3181,-3.79817E-05
448.4182,-3.79412E-05
448.5182,-3.793461E-05
448.6182,-3.796192E-05
448.7182,-3.79591E-05
448.8182,-3.791389E-05
448.9182,-3.791295E-05
449.0182,-3.79073E-05
449.1182,-3.789883E-05
449.2182,-3.790448E-05
449.3182,-3.789695E-05
449.4182,-3.784891E-05
449.5182,-3.78621E-05
449.6182,-3.787434E-05
449.7182,-3.787528E-05
449.8182,-3.78734E-05
449.9182,-3.786304E-05
450.0182,-3.781219E-05
450.1183,-3.784986E-05
450.2183,-3.784327E-05
450.3183,-3.782443E-05
450.4183,-3.780277E-05
450.5183,-3.779806E-05
450.6183,-3.777075E-05
450.7183,-3.779053E-05
450.8183,-3.779335E-05
450.9183,-3.77764E-05
451.0183,-3.77651E-05
451.1183,-3.775945E-05
451.2183,-3.772555E-05
451.3183,-3.775945E-05
451.4183,-3.77538E-05
451.5183,-3.771237E-05
451.6183,-3.772084E-05
451.7184,-3.772932E-05
451.8184,-3.770766E-05
451.9184,-3.772366E-05
452.0184,-3.772272E-05
452.1184,-3.766245E-05
452.2184,-3.767752E-05
452.3184,-3.767941E-05
452.4184,-3.765303E-05
452.5184,-3.765491E-05
452.6184,-3.76681E-05
452.7184,-3.761913E-05
452.8184,-3.762102E-05
452.9184,-3.763043E-05
453.0184,-3.760312E-05
453.1184,-3.763514E-05
453.2184,-3.76116E-05
453.3185,-3.756263E-05
453.4185,-3.758712E-05
453.5185,-3.7589E-05
453.6185,-3.755415E-05
453.7185,-3.75711E-05
453.8185,-3.756922E-05
453.9185,-3.755039E-05
454.0185,-3.755039E-05
454.1185,-3.752967E-05
454.2185,-3.752778E-05
454.3185,-3.756451E-05
454.4185,-3.754003E-05
454.5185,-3.750142E-05
454.6185,-3.751931E-05
454.7185,-3.751931E-05
454.8185,-3.750706E-05
454.9185,-3.750801E-05
455.0186,-3.749294E-05
455.1186,-3.746563E-05
455.2186,-3.748446E-05
455.3186,-3.746751E-05
455.4186,-3.741572E-05
455.5186,-3.746469E-05
455.6186,-3.74628E-05
455.7186,-3.742984E-05
455.8186,-3.743455E-05
455.9186,-3.742137E-05
456.0186,-3.739594E-05
456.1186,-3.741572E-05
456.2186,-3.741666E-05
456.3186,-3.738464E-05
456.4186,-3.739406E-05
456.5186,-3.738935E-05
456.6187,-3.736675E-05
456.7187,-3.736863E-05
456.8187,-3.737051E-05
456.9187,-3.733379E-05
457.0187,-3.733473E-05
457.1187,-3.736581E-05
457.2187,-3.734603E-05
457.3187,-3.733756E-05
457.4187,-3.734132E-05
457.5187,-3.732249E-05
457.6187,-3.729141E-05
457.7187,-3.732249E-05
457.8187,-3.72933E-05
457.9187,-3.72933E-05
458.0187,-3.728293E-05
458.1187,-3.726693E-05
458.2188,-3.724903E-05
458.3188,-3.727446E-05
458.4188,-3.724903E-05
458.5188,-3.724809E-05
458.6188,-3.724338E-05
458.7188,-3.721795E-05
458.8188,-3.721607E-05
458.9188,-3.724056E-05
459.0188,-3.720854E-05
459.1188,-3.718594E-05
459.2188,-3.720006E-05
459.3188,-3.716616E-05
459.4188,-3.717369E-05
459.5188,-3.718782E-05
459.6188,-3.715957E-05
459.7188,-3.715109E-05
459.8188,-3.715204E-05
459.9189,-3.71671E-05
460.0189,-3.713226E-05
460.1189,-3.713508E-05
460.2189,-3.711907E-05
460.3189,-3.710872E-05
460.4189,-3.711625E-05
460.5189,-3.708141E-05
460.6189,-3.708611E-05
460.7189,-3.709741E-05
460.8189,-3.708894E-05
460.9189,-3.707293E-05
461.0189,-3.706634E-05
461.1189,-3.704844E-05
461.2189,-3.703809E-05
461.3189,-3.706351E-05
461.4189,-3.703526E-05
461.519,-3.70362E-05
461.619,-3.704374E-05
461.719,-3.702867E-05
461.819,-3.700512E-05
461.919,-3.701925E-05
462.019,-3.699006E-05
462.119,-3.698629E-05
462.219,-3.699382E-05
462.319,-3.697122E-05
462.419,-3.695804E-05
462.519,-3.698158E-05
462.619,-3.694485E-05
462.719,-3.694108E-05
462.819,-3.694108E-05
462.919,-3.694203E-05
463.019,-3.69279E-05
463.119,-3.693638E-05
463.2191,-3.690812E-05
463.3191,-3.689117E-05
463.4191,-3.691472E-05
463.5191,-3.688647E-05
463.6191,-3.688741E-05
463.7191,-3.690247E-05
463.8191,-3.688364E-05
463.9191,-3.686575E-05
464.0191,-3.687705E-05
464.1191,-3.685256E-05
464.2191,-3.684315E-05
464.3191,-3.68488E-05
464.4191,-3.683938E-05
464.5191,-3.68422E-05
464.6191,-3.683467E-05
464.7191,-3.682337E-05
464.8192,-3.681866E-05
464.9192,-3.680077E-05
465.0192,-3.682902E-05
465.1192,-3.679041E-05
465.2192,-3.679229E-05
465.3192,-3.678758E-05
465.4192,-3.678193E-05
465.5192,-3.676404E-05
465.6192,-3.677346E-05
465.7192,-3.675745E-05
465.8192,-3.675839E-05
465.9192,-3.674427E-05
466.0192,-3.672825E-05
466.1192,-3.672072E-05
466.2192,-3.671507E-05
466.3192,-3.669812E-05
466.4193,-3.670848E-05
466.5193,-3.673391E-05
466.6193,-3.668117E-05
466.7193,-3.666798E-05
466.8193,-3.670659E-05
466.9193,-3.670942E-05
467.0193,-3.669058E-05
467.1193,-3.668211E-05
467.2193,-3.667458E-05
467.3193,-3.666045E-05
467.4193,-3.666045E-05
467.5193,-3.664444E-05
467.6193,-3.664255E-05
467.7193,-3.664632E-05
467.8193,-3.661525E-05
467.9193,-3.661901E-05
468.0193,-3.660301E-05
468.1194,-3.657946E-05
468.2194,-3.658417E-05
468.3194,-3.659453E-05
468.4194,-3.657852E-05
468.5194,-3.656628E-05
468.6194,-3.655874E-05
468.7194,-3.654273E-05
468.8194,-3.65644E-05
468.9194,-3.654273E-05
469.0194,-3.654368E-05
469.1194,-3.652766E-05
469.2194,-3.652484E-05
469.3194,-3.651919E-05
469.4194,-3.651448E-05
469.5194,-3.652107E-05
469.6194,-3.651165E-05
469.7195,-3.648434E-05
469.8195,-3.650883E-05
469.9195,-3.650412E-05
470.0195,-3.649471E-05
470.1195,-3.648434E-05
470.2195,-3.645986E-05
470.3195,-3.645233E-05
470.4195,-3.647776E-05
470.5195,-3.648058E-05
470.6195,-3.64608E-05
470.7195,-3.645704E-05
470.8195,-3.641183E-05
470.9195,-3.644008E-05
471.0195,-3.644761E-05
471.1195,-3.643443E-05
471.2195,-3.640901E-05
471.3195,-3.641372E-05
471.4196,-3.642125E-05
471.5196,-3.641842E-05
471.6196,-3.643067E-05
471.7196,-3.639677E-05
471.8196,-3.638358E-05
471.9196,-3.6393E-05
472.0196,-3.637604E-05
472.1196,-3.639677E-05
472.2196,-3.636945E-05
472.3196,-3.636098E-05
472.4196,-3.634214E-05
472.5196,-3.637887E-05
472.6196,-3.635439E-05
472.7196,-3.634497E-05
472.8196,-3.631954E-05
472.9196,-3.630165E-05
473.0197,-3.631389E-05
473.1197,-3.63638E-05
473.2197,-3.630447E-05
473.3197,-3.629318E-05
473.4197,-3.628564E-05
473.5197,-3.628846E-05
473.6197,-3.630259E-05
473.7197,-3.630541E-05
473.8197,-3.627716E-05
473.9197,-3.626398E-05
474.0197,-3.627716E-05
474.1197,-3.626681E-05
474.2197,-3.627528E-05
474.3197,-3.624985E-05
474.4197,-3.622349E-05
474.5197,-3.622537E-05
474.6198,-3.62395E-05
474.7198,-3.62442E-05
474.8198,-3.622254E-05
474.9198,-3.620559E-05
475.0198,-3.618393E-05
475.1198,-3.619712E-05
475.2198,-3.621689E-05
475.3198,-3.618582E-05
475.4198,-3.61877E-05
475.5198,-3.619523E-05
475.6198,-3.616227E-05
475.7198,-3.616604E-05
475.8198,-3.615568E-05
475.9198,-3.613873E-05
476.0198,-3.615757E-05
476.1198,-3.613496E-05
476.2198,-3.611048E-05
476.3199,-3.615003E-05
476.4199,-3.611707E-05
476.5199,-3.608694E-05
476.6199,-3.611425E-05
476.7199,-3.613967E-05
476.8199,-3.611989E-05
476.9199,-3.610671E-05
477.0199,-3.609824E-05
477.1199,-3.606904E-05
477.2199,-3.609447E-05
477.3199,-3.609164E-05
477.4199,-3.60342E-05
477.5199,-3.603326E-05
477.6199,-3.605021E-05
477.7199,-3.602949E-05
477.8199,-3.603608E-05
477.92,-3.604362E-05
478.02,-3.600971E-05
478.12,-3.603231E-05
478.22,-3.601536E-05
478.32,-3.601253E-05
478.42,-3.600312E-05
478.52,-3.599935E-05
478.62,-3.600124E-05
478.72,-3.599465E-05
478.82,-3.597016E-05
478.92,-3.598805E-05
479.02,-3.598617E-05
479.12,-3.597299E-05
479.22,-3.594002E-05
479.32,-3.595039E-05
479.42,-3.599653E-05
479.5201,-3.595133E-05
479.6201,-3.594002E-05
479.7201,-3.594002E-05
479.8201,-3.595886E-05
479.9201,-3.59372E-05
480.0201,-3.592967E-05
480.1201,-3.590424E-05
480.2201,-3.590612E-05
480.3201,-3.593061E-05
480.4201,-3.590989E-05
480.5201,-3.587693E-05
480.6201,-3.5892E-05
480.7201,-3.588352E-05
480.8201,-3.587505E-05
480.9201,-3.588917E-05
481.0201,-3.585809E-05
481.1201,-3.584397E-05
481.2202,-3.586657E-05
481.3202,-3.584397E-05
481.4202,-3.582042E-05
481.5202,-3.583455E-05
481.6202,-3.581666E-05
481.7202,-3.581572E-05
481.8202,-3.583361E-05
481.9202,-3.582702E-05
482.0202,-3.582137E-05
482.1202,-3.582137E-05
482.2202,-3.581101E-05
482.3202,-3.576863E-05
482.4202,-3.580065E-05
482.5202,-3.579782E-05
482.6202,-3.577334E-05
482.7202,-3.576393E-05
482.8203,-3.578558E-05
482.9203,-3.580442E-05
483.0203,-3.579312E-05
483.1203,-3.576015E-05
483.2203,-3.575921E-05
483.3203,-3.578652E-05
483.4203,-3.57611E-05
483.5203,-3.572249E-05
483.6203,-3.57498E-05
483.7203,-3.574603E-05
483.8203,-3.57206E-05
483.9203,-3.57432E-05
484.0203,-3.5698E-05
484.1203,-3.570082E-05
484.2203,-3.572343E-05
484.3203,-3.572531E-05
484.4203,-3.5698E-05
484.5204,-3.56867E-05
484.6204,-3.568293E-05
484.7204,-3.565751E-05
484.8204,-3.567163E-05
484.9204,-3.569424E-05
485.0204,-3.565186E-05
485.1204,-3.564338E-05
485.2204,-3.563867E-05
485.3204,-3.562266E-05
485.4204,-3.565186E-05
485.5204,-3.561324E-05
485.6204,-3.562455E-05
485.7204,-3.561983E-05
485.8204,-3.562266E-05
485.9204,-3.561042E-05
486.0204,-3.56123E-05
486.1205,-3.560383E-05
486.2205,-3.555957E-05
486.3205,-3.558217E-05
486.4205,-3.558688E-05
486.5205,-3.556051E-05
486.6205,-3.55784E-05
486.7205,-3.554732E-05
486.8205,-3.553979E-05
486.9205,-3.556616E-05
487.0205,-3.553226E-05
487.1205,-3.553226E-05
487.2205,-3.555486E-05
487.3205,-3.556051E-05
487.4205,-3.550683E-05
487.5205,-3.555015E-05
487.6205,-3.553885E-05
487.7206,-3.54927E-05
487.8206,-3.550306E-05
487.9206,-3.54993E-05
488.0206,-3.54927E-05
488.1206,-3.550494E-05
488.2206,-3.547481E-05
488.3206,-3.545974E-05
488.4206,-3.551248E-05
488.5206,-3.54814E-05
488.6206,-3.54362E-05
488.7206,-3.545127E-05
488.8206,-3.546822E-05
488.9206,-3.546257E-05
489.0206,-3.543526E-05
489.1206,-3.543431E-05
489.2206,-3.540418E-05
489.3206,-3.542584E-05
489.4207,-3.543243E-05
489.5207,-3.540701E-05
489.6207,-3.539571E-05
489.7207,-3.541171E-05
489.8207,-3.540136E-05
489.9207,-3.541454E-05
490.0207,-3.539853E-05
490.1207,-3.537781E-05
490.2207,-3.537875E-05
490.3207,-3.540512E-05
490.4207,-3.535992E-05
490.5207,-3.538064E-05
490.6207,-3.53618E-05
490.7207,-3.534014E-05
490.8207,-3.534391E-05
490.9207,-3.535144E-05
491.0208,-3.533261E-05
491.1208,-3.532508E-05
491.2208,-3.532696E-05
491.3208,-3.531E-05
491.4208,-3.531942E-05
491.5208,-3.530812E-05
491.6208,-3.530907E-05
491.7208,-3.530247E-05
491.8208,-3.532319E-05
491.9208,-3.529777E-05
492.0208,-3.531378E-05
492.1208,-3.527704E-05
492.2208,-3.528081E-05
492.3208,-3.529305E-05
492.4208,-3.530624E-05
492.5208,-3.525162E-05
492.6208,-3.527516E-05
492.7209,-3.527611E-05
492.8209,-3.524126E-05
492.9209,-3.524597E-05
493.0209,-3.526951E-05
493.1209,-3.523184E-05
493.2209,-3.523655E-05
493.3209,-3.525444E-05
493.4209,-3.521772E-05
493.5209,-3.522525E-05
493.6209,-3.522337E-05
493.7209,-3.520736E-05
493.8209,-3.524031E-05
493.9209,-3.521112E-05
494.0209,-3.519417E-05
494.1209,-3.518947E-05
494.2209,-3.518099E-05
494.321,-3.520642E-05
494.421,-3.519794E-05
494.521,-3.517722E-05
494.621,-3.517534E-05
494.721,-3.517817E-05
494.821,-3.517722E-05
494.921,-3.515462E-05
495.021,-3.515462E-05
495.121,-3.516121E-05
495.221,-3.513108E-05
495.321,-3.513673E-05
495.421,-3.513108E-05
495.521,-3.513014E-05
495.621,-3.515274E-05
495.721,-3.511224E-05
495.821,-3.510189E-05
495.9211,-3.511884E-05
496.0211,-3.510094E-05
496.1211,-3.509529E-05
496.2211,-3.511884E-05
496.3211,-3.510848E-05
496.4211,-3.508776E-05
496.5211,-3.510377E-05
496.6211,-3.509153E-05
496.7211,-3.506233E-05
496.8211,-3.508116E-05
496.9211,-3.507928E-05
497.0211,-3.506233E-05
497.1211,-3.50661E-05
497.2211,-3.504161E-05
497.3211,-3.506516E-05
497.4211,-3.509341E-05
497.5211,-3.507834E-05
497.6212,-3.503973E-05
497.7212,-3.503785E-05
497.8212,-3.504255E-05
497.9212,-3.504632E-05
498.0212,-3.503973E-05
498.1212,-3.502278E-05
498.2212,-3.498605E-05
498.3212,-3.502184E-05
498.4212,-3.502466E-05
498.5212,-3.497569E-05
498.6212,-3.499641E-05
498.7212,-3.501524E-05
498.8212,-3.500677E-05
498.9212,-3.5003E-05
499.0212,-3.497569E-05
499.1212,-3.495874E-05
499.2213,-3.498511E-05
499.3213,-3.498794E-05
499.4213,-3.497004E-05
499.5213,-3.495968E-05
499.6213,-3.496722E-05
499.7213,-3.493896E-05
499.8213,-3.496816E-05
499.9213,-3.493426E-05
500.0213,-3.49173E-05
500.1213,-3.492766E-05
500.2213,-3.492672E-05
500.3213,-3.4906E-05
500.4213,-3.493049E-05
500.5213,-3.492202E-05
500.6213,-3.48787E-05
500.7213,-3.488152E-05
500.8214,-3.489847E-05
500.9214,-3.487398E-05
501.0214,-3.48947E-05
501.1214,-3.487022E-05
501.2214,-3.485233E-05
501.3214,-3.48787E-05
501.4214,-3.486927E-05
501.5214,-3.484479E-05
501.6214,-3.486927E-05
501.7214,-3.486551E-05
501.8214,-3.486362E-05
501.9214,-3.485892E-05
502.0214,-3.487304E-05
502.1214,-3.485515E-05
502.2214,-3.485515E-05
502.3214,-3.483914E-05
502.4214,-3.484196E-05
502.5215,-3.484856E-05
502.6215,-3.485421E-05
502.7215,-3.484385E-05
502.8215,-3.486174E-05
502.9215,-3.484951E-05
503.0215,-3.484291E-05
503.1215,-3.486174E-05
503.2215,-3.484856E-05
503.3215,-3.482313E-05
503.4215,-3.483726E-05
503.5215,-3.480523E-05
503.6215,-3.478358E-05
503.7215,-3.481183E-05
503.8215,-3.482878E-05
503.9215,-3.476663E-05
504.0215,-3.477793E-05
504.1216,-3.48043E-05
504.2216,-3.47864E-05
504.3216,-3.479959E-05
504.4216,-3.479488E-05
504.5216,-3.47525E-05
504.6216,-3.477228E-05
504.7216,-3.479676E-05
504.8216,-3.475909E-05
504.9216,-3.475815E-05
505.0216,-3.474403E-05
505.1216,-3.474779E-05
505.2216,-3.474591E-05
505.3216,-3.475909E-05
505.4216,-3.473178E-05
505.5216,-3.472707E-05
505.6216,-3.475156E-05
505.7216,-3.473649E-05
505.8217,-3.473178E-05
505.9217,-3.471766E-05
506.0217,-3.472048E-05
506.1217,-3.473084E-05
506.2217,-3.471483E-05
506.3217,-3.470541E-05
506.4217,-3.471107E-05
506.5217,-3.471295E-05
506.6217,-3.46847E-05
506.7217,-3.470635E-05
506.8217,-3.469223E-05
506.9217,-3.467622E-05
507.0217,-3.46847E-05
507.1217,-3.46847E-05
507.2217,-3.467716E-05
507.3217,-3.469035E-05
507.4218,-3.468376E-05
507.5218,-3.46395E-05
507.6218,-3.466303E-05
507.7218,-3.466963E-05
507.8218,-3.465456E-05
507.9218,-3.464797E-05
508.0218,-3.46555E-05
508.1218,-3.465833E-05
508.2218,-3.464891E-05
508.3218,-3.46734E-05
508.4218,-3.466021E-05
508.5218,-3.464044E-05
508.6218,-3.465739E-05
508.7218,-3.463196E-05
508.8218,-3.464138E-05
508.9218,-3.466115E-05
509.0219,-3.462254E-05
509.1219,-3.458958E-05
509.2219,-3.462631E-05
509.3219,-3.46508E-05
509.4219,-3.463008E-05
509.5219,-3.46216E-05
509.6219,-3.460277E-05
509.7219,-3.457451E-05
509.8219,-3.460371E-05
509.9219,-3.46103E-05
510.0219,-3.459806E-05
510.1219,-3.45877E-05
510.2219,-3.457263E-05
510.3219,-3.458864E-05
510.4219,-3.460182E-05
510.5219,-3.457263E-05
510.6219,-3.45425E-05
510.722,-3.456416E-05
510.822,-3.455756E-05
510.922,-3.457828E-05
511.022,-3.457546E-05
511.122,-3.454908E-05
511.222,-3.453685E-05
511.322,-3.455756E-05
511.422,-3.453308E-05
511.522,-3.453778E-05
511.622,-3.455945E-05
511.722,-3.451707E-05
511.822,-3.454626E-05
511.922,-3.454532E-05
512.022,-3.450671E-05
512.122,-3.450012E-05
512.222,-3.452931E-05
512.322,-3.454344E-05
512.4219,-3.450859E-05
512.5219,-3.450671E-05
512.6219,-3.450671E-05
512.7219,-3.450482E-05
512.8218,-3.451989E-05
512.9218,-3.448599E-05
513.0218,-3.450012E-05
513.1218,-3.452084E-05
513.2217,-3.447657E-05
513.3217,-3.445021E-05
513.4217,-3.450953E-05
513.5217,-3.450953E-05
513.6216,-3.445492E-05
513.7216,-3.449447E-05
513.8216,-3.451047E-05
513.9216,-3.447846E-05
514.0215,-3.448317E-05
514.1215,-3.44794E-05
514.2215,-3.449635E-05
514.3215,-3.447375E-05
514.4214,-3.445868E-05
514.5214,-3.445492E-05
514.6214,-3.446527E-05
514.7214,-3.449259E-05
514.8214,-3.443514E-05
514.9213,-3.443231E-05
515.0213,-3.441725E-05
515.1213,-3.441254E-05
515.2213,-3.44229E-05
515.3212,-3.44455E-05
515.4212,-3.440594E-05
515.5212,-3.440971E-05
515.6212,-3.44276E-05
515.7211,-3.441819E-05
515.8211,-3.438993E-05
515.9211,-3.439653E-05
516.0211,-3.441348E-05
516.121,-3.441159E-05
516.221,-3.439276E-05
516.321,-3.438052E-05
516.421,-3.440406E-05
516.5209,-3.437298E-05
516.6209,-3.44003E-05
516.7209,-3.439182E-05
516.8209,-3.436827E-05
516.9208,-3.436733E-05
517.0208,-3.436074E-05
517.1208,-3.436074E-05
517.2208,-3.434379E-05
517.3207,-3.435603E-05
517.4207,-3.435886E-05
517.5207,-3.434756E-05
517.6207,-3.432496E-05
517.7206,-3.433626E-05
517.8206,-3.435603E-05
517.9206,-3.433814E-05
518.0206,-3.433908E-05
518.1205,-3.430141E-05
518.2205,-3.431836E-05
518.3205,-3.433155E-05
518.4205,-3.430989E-05
518.5204,-3.431366E-05
518.6204,-3.429388E-05
518.7204,-3.427975E-05
518.8204,-3.430236E-05
518.9203,-3.430895E-05
519.0203,-3.424491E-05
519.1203,-3.43033E-05
519.2203,-3.431271E-05
519.3203,-3.428446E-05
519.4202,-3.425998E-05
519.5202,-3.427693E-05
519.6202,-3.425338E-05
519.7202,-3.428446E-05
519.8201,-3.428163E-05
519.9201,-3.423926E-05
520.0201,-3.425432E-05
520.1201,-3.42581E-05
520.22,-3.424773E-05
520.32,-3.423361E-05
520.42,-3.423455E-05
520.52,-3.422607E-05
520.6199,-3.421289E-05
520.7199,-3.423738E-05
520.8199,-3.420159E-05
520.9199,-3.421383E-05
521.0198,-3.423832E-05
521.1198,-3.417805E-05
521.2198,-3.418841E-05
521.3198,-3.421195E-05
521.4197,-3.4195E-05
521.5197,-3.4195E-05
521.6197,-3.419406E-05
521.7197,-3.417993E-05
521.8196,-3.419217E-05
521.9196,-3.418935E-05
522.0196,-3.417899E-05
522.1196,-3.415921E-05
522.2195,-3.417239E-05
522.3195,-3.415921E-05
522.4195,-3.414791E-05
522.5195,-3.417145E-05
522.6194,-3.415827E-05
522.7194,-3.41545E-05
522.8194,-3.41432E-05
522.9194,-3.415168E-05
523.0193,-3.419594E-05
523.1193,-3.418746E-05
523.2193,-3.413661E-05
523.3193,-3.414697E-05
523.4193,-3.418087E-05
523.5192,-3.413943E-05
523.6192,-3.412719E-05
523.7192,-3.412813E-05
523.8192,-3.413755E-05
523.9191,-3.413473E-05
524.0191,-3.414885E-05
524.1191,-3.41027E-05
524.2191,-3.409423E-05
524.319,-3.413002E-05
524.419,-3.411401E-05
524.519,-3.41027E-05
524.619,-3.409705E-05
524.7189,-3.408764E-05
524.8189,-3.40867E-05
524.9189,-3.41027E-05
525.0189,-3.408952E-05
525.1188,-3.406504E-05
525.2188,-3.407351E-05
525.3188,-3.406127E-05
525.4188,-3.407445E-05
525.5187,-3.407728E-05
525.6187,-3.405656E-05
525.7187,-3.403679E-05
525.8187,-3.406786E-05
525.9186,-3.408481E-05
526.0186,-3.403302E-05
526.1186,-3.405374E-05
526.2186,-3.403491E-05
526.3185,-3.402172E-05
526.4185,-3.405468E-05
526.5185,-3.405844E-05
526.6185,-3.402548E-05
526.7184,-3.401889E-05
526.8184,-3.402643E-05
526.9184,-3.402737E-05
527.0184,-3.402548E-05
527.1183,-3.401795E-05
527.2183,-3.401983E-05
527.3183,-3.406692E-05
527.4183,-3.402925E-05
527.5182,-3.400854E-05
527.6182,-3.402548E-05
527.7182,-3.401701E-05
527.8182,-3.402266E-05
527.9182,-3.401701E-05
528.0181,-3.39897E-05
528.1181,-3.397181E-05
528.2181,-3.4001E-05
528.3181,-3.401419E-05
528.418,-3.396992E-05
528.518,-3.395768E-05
528.618,-3.398593E-05
528.718,-3.398311E-05
528.8179,-3.399347E-05
528.9179,-3.397463E-05
529.0179,-3.395015E-05
529.1179,-3.395768E-05
529.2178,-3.397087E-05
529.3178,-3.396333E-05
529.4178,-3.395015E-05
529.5178,-3.396239E-05
529.6177,-3.394167E-05
529.7177,-3.395674E-05
529.8177,-3.397087E-05
529.9177,-3.391907E-05
530.0176,-3.394167E-05
530.1176,-3.393508E-05
530.2176,-3.392754E-05
530.3176,-3.391907E-05
530.4175,-3.396333E-05
530.5175,-3.391342E-05
530.6175,-3.391059E-05
530.7175,-3.390118E-05
530.8174,-3.388423E-05
530.9174,-3.391059E-05
531.0174,-3.392566E-05
531.1174,-3.388234E-05
531.2173,-3.387293E-05
531.3173,-3.390212E-05
531.4173,-3.387952E-05
531.5173,-3.388988E-05
531.6172,-3.385692E-05
531.7172,-3.387575E-05
531.8172,-3.387293E-05
531.9172,-3.385315E-05
532.0172,-3.382867E-05
532.1171,-3.387952E-05
532.2171,-3.388423E-05
532.3171,-3.385127E-05
532.4171,-3.384185E-05
532.517,-3.387481E-05
532.617,-3.385032E-05
532.717,-3.384467E-05
532.817,-3.382019E-05
532.9169,-3.380983E-05
533.0169,-3.38409E-05
533.1169,-3.385315E-05
533.2169,-3.383997E-05
533.3168,-3.38183E-05
533.4168,-3.38183E-05
533.5168,-3.383055E-05
533.6168,-3.38249E-05
533.7167,-3.383902E-05
533.8167,-3.379664E-05
533.9167,-3.379382E-05
534.0167,-3.38136E-05
534.1166,-3.381077E-05
534.2166,-3.380324E-05
534.3166,-3.379005E-05
534.4166,-3.376651E-05
534.5165,-3.37844E-05
534.6165,-3.38136E-05
534.7165,-3.380229E-05
534.8165,-3.376839E-05
534.9164,-3.378252E-05
535.0164,-3.374861E-05
535.1164,-3.377969E-05
535.2164,-3.379005E-05
535.3163,-3.377216E-05
535.4163,-3.376839E-05
535.5163,-3.375803E-05
535.6163,-3.373449E-05
535.7162,-3.377028E-05
535.8162,-3.37731E-05
535.9162,-3.373826E-05
536.0162,-3.375333E-05
536.1161,-3.375521E-05
536.2161,-3.374391E-05
536.3161,-3.375992E-05
536.4161,-3.372319E-05
536.5161,-3.372884E-05
536.616,-3.375427E-05
536.716,-3.375898E-05
536.816,-3.37392E-05
536.916,-3.374203E-05
537.0159,-3.373166E-05
537.1159,-3.371754E-05
537.2159,-3.375239E-05
537.3159,-3.371942E-05
537.4158,-3.36987E-05
537.5158,-3.371566E-05
537.6158,-3.372319E-05
537.7158,-3.369305E-05
537.8157,-3.370718E-05
537.9157,-3.371E-05
538.0157,-3.369211E-05
538.1157,-3.371378E-05
538.2156,-3.369965E-05
538.3156,-3.36874E-05
538.4156,-3.368364E-05
538.5156,-3.367987E-05
538.6155,-3.368647E-05
538.7155,-3.36987E-05
538.8155,-3.368364E-05
538.9155,-3.36874E-05
539.0154,-3.370247E-05
539.1154,-3.369023E-05
539.2154,-3.365821E-05
539.3154,-3.368175E-05
539.4153,-3.369588E-05
539.5153,-3.362808E-05
539.6153,-3.365633E-05
539.7153,-3.369494E-05
539.8152,-3.36874E-05
539.9152,-3.365444E-05
540.0152,-3.365444E-05
540.1152,-3.367893E-05
540.2151,-3.365162E-05
540.3151,-3.366197E-05
540.4151,-3.365067E-05
540.5151,-3.364409E-05
540.6151,-3.365256E-05
540.715,-3.362713E-05
540.815,-3.363749E-05
540.915,-3.365915E-05
541.015,-3.362054E-05
541.1149,-3.363561E-05
541.2149,-3.364314E-05
541.3149,-3.362054E-05
541.4149,-3.36196E-05
541.5148,-3.362902E-05
541.6148,-3.359888E-05
541.7148,-3.359229E-05
541.8148,-3.364409E-05
541.9147,-3.363373E-05
542.0147,-3.360077E-05
542.1147,-3.36309E-05
542.2147,-3.362431E-05
542.3146,-3.361018E-05
542.4146,-3.361489E-05
542.5146,-3.361866E-05
542.6146,-3.35744E-05
542.7145,-3.36083E-05
542.8145,-3.360453E-05
542.9145,-3.357157E-05
543.0145,-3.361489E-05
543.1144,-3.360924E-05
543.2144,-3.356498E-05
543.3144,-3.358287E-05
543.4144,-3.358193E-05
543.5143,-3.356969E-05
543.6143,-3.358005E-05
543.7143,-3.355651E-05
543.8143,-3.35791E-05
543.9142,-3.359323E-05
544.0142,-3.356027E-05
544.1142,-3.356027E-05
544.2142,-3.355462E-05
544.3141,-3.356874E-05
544.4141,-3.356874E-05
544.5141,-3.357157E-05
544.6141,-3.356498E-05
544.7141,-3.352825E-05
544.814,-3.35678E-05
544.914,-3.356404E-05
545.014,-3.352542E-05
545.114,-3.354991E-05
545.2139,-3.357157E-05
545.3139,-3.353108E-05
545.4139,-3.353296E-05
545.5139,-3.354426E-05
545.6138,-3.351224E-05
545.7138,-3.353955E-05
545.8138,-3.356874E-05
545.9138,-3.353484E-05
546.0137,-3.351318E-05
546.1137,-3.353673E-05
546.2137,-3.352825E-05
546.3137,-3.353861E-05
546.4136,-3.355085E-05
546.5136,-3.351977E-05
546.6136,-3.353673E-05
546.7136,-3.352072E-05
546.8135,-3.350942E-05
546.9135,-3.349906E-05
547.0135,-3.349717E-05
547.1135,-3.351507E-05
547.2134,-3.349906E-05
547.3134,-3.349058E-05
547.4134,-3.352072E-05
547.5134,-3.348022E-05
547.6133,-3.352354E-05
547.7133,-3.349058E-05
547.8133,-3.348022E-05
547.9133,-3.349623E-05
548.0132,-3.349247E-05
548.1132,-3.348493E-05
548.2132,-3.349341E-05
548.3132,-3.347834E-05
548.4131,-3.346986E-05
548.5131,-3.349435E-05
548.6131,-3.347551E-05
548.7131,-3.344915E-05
548.813,-3.346421E-05
548.913,-3.345763E-05
549.013,-3.347175E-05
549.113,-3.347363E-05
549.213,-3.34482E-05
549.3129,-3.341995E-05
549.4129,-3.346045E-05
549.5129,-3.34482E-05
549.6129,-3.34209E-05
549.7128,-3.34209E-05
549.8128,-3.342278E-05
549.9128,-3.343973E-05
550.0128,-3.343596E-05
550.1127,-3.341336E-05
550.2127,-3.338228E-05
550.3127,-3.345573E-05
550.4127,-3.346986E-05
550.5126,-3.342654E-05
550.6126,-3.342937E-05
550.7126,-3.34482E-05
550.8126,-3.341147E-05
550.9125,-3.347269E-05
551.0125,-3.342654E-05
551.1125,-3.339829E-05
551.2125,-3.343408E-05
551.3124,-3.340489E-05
551.4124,-3.339735E-05
551.5124,-3.339547E-05
551.6124,-3.339829E-05
551.7123,-3.33917E-05
551.8123,-3.343313E-05
551.9123,-3.338228E-05
552.0123,-3.338322E-05
552.1122,-3.338794E-05
552.2122,-3.341054E-05
552.3122,-3.339452E-05
552.4122,-3.339452E-05
552.5121,-3.337757E-05
552.6121,-3.336816E-05
552.7121,-3.337192E-05
552.8121,-3.337381E-05
552.912,-3.334085E-05
553.012,-3.33691E-05
553.112,-3.337569E-05
553.212,-3.334085E-05
553.312,-3.33465E-05
553.4119,-3.332766E-05
553.5119,-3.336251E-05
553.6119,-3.336627E-05
553.7119,-3.337946E-05
553.8118,-3.335403E-05
553.9118,-3.332672E-05
554.0118,-3.335686E-05
554.1118,-3.334273E-05
554.2117,-3.335026E-05
554.3117,-3.335309E-05
554.4117,-3.331542E-05
554.5117,-3.331354E-05
554.6116,-3.334085E-05
554.7116,-3.330695E-05
554.8116,-3.332672E-05
554.9116,-3.33352E-05
555.0115,-3.329282E-05
555.1115,-3.33173E-05
555.2115,-3.331448E-05
555.3115,-3.331071E-05
555.4114,-3.32947E-05
555.5114,-3.331919E-05
555.6114,-3.328811E-05
555.7114,-3.331354E-05
555.8113,-3.331354E-05
555.9113,-3.329376E-05
556.0113,-3.329093E-05
556.1113,-3.328529E-05
556.2112,-3.328811E-05
556.3112,-3.330129E-05
556.4112,-3.329376E-05
556.5112,-3.326457E-05
556.6111,-3.328434E-05
556.7111,-3.328905E-05
556.8111,-3.329658E-05
556.9111,-3.326833E-05
557.011,-3.328058E-05
557.111,-3.328623E-05
557.211,-3.327492E-05
557.311,-3.327116E-05
557.4109,-3.325892E-05
557.5109,-3.325797E-05
557.6109,-3.326833E-05
557.7109,-3.325327E-05
557.8109,-3.325421E-05
557.9108,-3.324856E-05
558.0108,-3.323443E-05
558.1108,-3.324102E-05
558.2108,-3.326457E-05
558.3107,-3.325421E-05
558.4107,-3.324291E-05
558.5107,-3.323443E-05
558.6107,-3.321466E-05
558.7106,-3.323443E-05
558.8106,-3.325609E-05
558.9106,-3.322125E-05
559.0106,-3.319582E-05
559.1105,-3.322125E-05
559.2105,-3.323066E-05
559.3105,-3.32382E-05
559.4105,-3.321748E-05
559.5104,-3.31977E-05
559.6104,-3.319488E-05
559.7104,-3.321466E-05
559.8104,-3.320335E-05
559.9103,-3.321371E-05
560.0103,-3.320712E-05
560.1103,-3.316097E-05
560.2103,-3.319206E-05
560.3102,-3.321466E-05
560.4102,-3.317322E-05
560.5102,-3.317981E-05
560.6102,-3.317416E-05
560.7101,-3.317981E-05
560.8101,-3.318546E-05
560.9101,-3.320147E-05
561.0101,-3.316757E-05
561.11,-3.315627E-05
561.21,-3.320053E-05
561.31,-3.31704E-05
561.41,-3.31751E-05
561.5099,-3.31704E-05
561.6099,-3.318075E-05
561.7099,-3.31638E-05
561.8099,-3.317322E-05
561.9099,-3.315815E-05
562.0098,-3.317887E-05
562.1098,-3.31525E-05
562.2098,-3.312896E-05
562.3098,-3.316475E-05
562.4097,-3.318452E-05
562.5097,-3.317793E-05
562.6097,-3.315438E-05
562.7097,-3.318452E-05
562.8096,-3.31412E-05
562.9096,-3.317228E-05
563.0096,-3.314026E-05
563.1096,-3.313084E-05
563.2095,-3.313649E-05
563.3095,-3.313932E-05
563.4095,-3.311389E-05
563.5095,-3.313461E-05
563.6094,-3.313461E-05
563.7094,-3.311012E-05
563.8094,-3.312425E-05
563.9094,-3.311577E-05
564.0093,-3.310541E-05
564.1093,-3.310447E-05
564.2093,-3.311954E-05
564.3093,-3.310541E-05
564.4092,-3.309506E-05
564.5092,-3.3096E-05
564.6092,-3.309506E-05
564.7092,-3.309317E-05
564.8091,-3.312331E-05
564.9091,-3.309788E-05
565.0091,-3.306963E-05
565.1091,-3.309223E-05
565.209,-3.30668E-05
565.309,-3.309694E-05
565.409,-3.309128E-05
565.509,-3.30555E-05
565.6089,-3.309788E-05
565.7089,-3.309694E-05
565.8089,-3.304985E-05
565.9089,-3.307057E-05
566.0089,-3.308187E-05
566.1088,-3.307245E-05
566.2088,-3.30734E-05
566.3088,-3.307057E-05
566.4088,-3.309506E-05
566.5087,-3.307057E-05
566.6087,-3.309034E-05
566.7087,-3.308752E-05
566.8087,-3.306586E-05
566.9086,-3.310259E-05
567.0086,-3.308281E-05
567.1086,-3.305927E-05
567.2086,-3.307905E-05
567.3085,-3.306398E-05
567.4085,-3.306209E-05
567.5085,-3.308187E-05
567.6085,-3.304232E-05
567.7084,-3.301971E-05
567.8084,-3.310259E-05
567.9084,-3.310918E-05
568.0084,-3.303855E-05
568.1083,-3.305362E-05
568.2083,-3.306115E-05
568.3083,-3.304797E-05
568.4083,-3.308375E-05
568.5082,-3.304797E-05
568.6082,-3.30329E-05
568.7082,-3.306115E-05
568.8082,-3.305927E-05
568.9081,-3.304232E-05
569.0081,-3.30329E-05
569.1081,-3.303667E-05
569.2081,-3.305456E-05
569.308,-3.306398E-05
569.408,-3.303667E-05
569.508,-3.300842E-05
569.608,-3.304043E-05
569.7079,-3.304326E-05
569.8079,-3.301595E-05
569.9079,-3.303761E-05
570.0079,-3.300936E-05
570.1078,-3.305362E-05
570.2078,-3.304608E-05
570.3078,-3.301124E-05
570.4078,-3.299994E-05
570.5078,-3.2999E-05
570.6077,-3.302066E-05
570.7077,-3.302254E-05
570.8077,-3.301877E-05
570.9077,-3.299994E-05
571.0076,-3.298017E-05
571.1076,-3.299994E-05
571.2076,-3.30037E-05
571.3076,-3.296981E-05
571.4075,-3.2999E-05
571.5075,-3.301501E-05
571.6075,-3.299617E-05
571.7075,-3.297828E-05
571.8074,-3.296886E-05
571.9074,-3.296981E-05
572.0074,-3.301124E-05
572.1074,-3.296321E-05
572.2073,-3.29312E-05
572.3073,-3.300182E-05
572.4073,-3.2999E-05
572.5073,-3.295756E-05
572.6072,-3.298205E-05
572.7072,-3.298582E-05
572.8072,-3.295851E-05
572.9072,-3.298111E-05
573.0071,-3.295568E-05
573.1071,-3.296227E-05
573.2071,-3.294626E-05
573.3071,-3.298864E-05
573.407,-3.294438E-05
573.507,-3.292837E-05
573.607,-3.295944E-05
573.707,-3.294532E-05
573.8069,-3.297639E-05
573.9069,-3.295286E-05
574.0069,-3.293496E-05
574.1069,-3.295379E-05
574.2068,-3.294814E-05
574.3068,-3.294532E-05
574.4068,-3.293684E-05
574.5068,-3.292178E-05
574.6068,-3.295191E-05
574.7067,-3.294438E-05
574.8067,-3.295379E-05
574.9067,-3.292555E-05
575.0067,-3.29246E-05
575.1066,-3.296321E-05
575.2066,-3.293496E-05
575.3066,-3.294814E-05
575.4066,-3.293873E-05
575.5065,-3.292931E-05
575.6065,-3.294344E-05
575.7065,-3.296416E-05
575.8065,-3.29359E-05
575.9064,-3.29359E-05
576.0064,-3.29312E-05
576.1064,-3.29133E-05
576.2064,-3.295756E-05
576.3063,-3.296416E-05
576.4063,-3.293496E-05
576.5063,-3.292743E-05
576.6063,-3.292083E-05
576.7062,-3.291895E-05
576.8062,-3.294344E-05
576.9062,-3.295003E-05
577.0062,-3.294532E-05
577.1061,-3.292272E-05
577.2061,-3.295097E-05
577.3061,-3.291613E-05
577.4061,-3.292648E-05
577.506,-3.293213E-05
577.606,-3.292083E-05
577.706,-3.291613E-05
577.806,-3.294438E-05
577.9059,-3.2902E-05
578.0059,-3.295944E-05
578.1059,-3.294626E-05
578.2059,-3.291425E-05
578.3058,-3.294814E-05
578.4058,-3.296133E-05
578.5058,-3.295756E-05
578.6058,-3.293967E-05
578.7057,-3.292648E-05
578.8057,-3.29312E-05
578.9057,-3.295944E-05
579.0057,-3.295756E-05
579.1057,-3.292648E-05
579.2056,-3.290765E-05
579.3056,-3.295097E-05
579.4056,-3.29472E-05
579.5056,-3.294344E-05
579.6055,-3.293778E-05
579.7055,-3.292837E-05
579.8055,-3.29359E-05
579.9055,-3.294344E-05
580.0054,-3.292083E-05
580.1054,-3.290859E-05
580.2054,-3.293213E-05
580.3054,-3.296886E-05
580.4053,-3.292743E-05
580.5053,-3.293684E-05
580.6053,-3.29359E-05
580.7053,-3.293308E-05
580.8052,-3.294438E-05
580.9052,-3.294155E-05
581.0052,-3.295286E-05
581.1052,-3.296509E-05
581.2051,-3.293873E-05
581.3051,-3.291518E-05
581.4051,-3.29312E-05
581.5051,-3.293778E-05
581.605,-3.290577E-05
581.705,-3.294626E-05
581.805,-3.294438E-05
581.905,-3.290294E-05
582.0049,-3.292178E-05
582.1049,-3.29312E-05
582.2049,-3.292083E-05
582.3049,-3.291895E-05
582.4048,-3.293873E-05
582.5048,-3.292743E-05
582.6048,-3.295003E-05
582.7048,-3.29472E-05
582.8047,-3.289635E-05
582.9047,-3.291518E-05
583.0047,-3.293967E-05
583.1047,-3.291801E-05
583.2047,-3.292648E-05
583.3046,-3.29246E-05
583.4046,-3.290012E-05
583.5046,-3.291425E-05
583.6046,-3.29472E-05
583.7045,-3.290482E-05
583.8045,-3.2902E-05
583.9045,-3.291613E-05
584.0045,-3.290106E-05
584.1044,-3.29312E-05
584.2044,-3.290577E-05
584.3044,-3.288128E-05
584.4044,-3.290859E-05
584.5043,-3.292366E-05
584.6043,-3.288882E-05
584.7043,-3.29133E-05
584.8043,-3.29359E-05
584.9042,-3.293496E-05
585.0042,-3.292366E-05
585.1042,-3.291518E-05
585.2042,-3.29312E-05
585.3041,-3.29312E-05
585.4041,-3.293967E-05
585.5041,-3.29133E-05
585.6041,-3.291518E-05
585.704,-3.295003E-05
585.804,-3.290765E-05
585.904,-3.29246E-05
586.004,-3.291989E-05
586.1039,-3.292931E-05
586.2039,-3.294344E-05
586.3039,-3.292555E-05
586.4039,-3.290953E-05
586.5038,-3.288693E-05
586.6038,-3.290859E-05
586.7038,-3.291895E-05
586.8038,-3.290577E-05
586.9037,-3.290953E-05
587.0037,-3.291707E-05
587.1037,-3.292648E-05
587.2037,-3.292272E-05
587.3036,-3.289164E-05
587.4036,-3.290482E-05
587.5036,-3.293025E-05
587.6036,-3.290106E-05
587.7036,-3.287752E-05
587.8035,-3.293308E-05
587.9035,-3.293496E-05
588.0035,-3.29359E-05
588.1035,-3.294909E-05
588.2034,-3.290388E-05
588.3034,-3.288787E-05
588.4034,-3.291613E-05
588.5034,-3.290388E-05
588.6033,-3.292083E-05
588.7033,-3.292083E-05
588.8033,-3.288222E-05
588.9033,-3.290577E-05
589.0032,-3.292178E-05
589.1032,-3.287563E-05
589.2032,-3.286998E-05
589.3032,-3.290482E-05
589.4031,-3.291236E-05
589.5031,-3.289447E-05
589.6031,-3.291142E-05
589.7031,-3.290012E-05
589.803,-3.288034E-05
589.903,-3.28954E-05
590.003,-3.289918E-05
590.103,-3.286433E-05
590.2029,-3.289729E-05
590.3029,-3.28954E-05
590.4029,-3.286339E-05
590.5029,-3.28954E-05
590.6028,-3.288693E-05
590.7028,-3.288882E-05
590.8028,-3.287563E-05
590.9028,-3.287657E-05
591.0027,-3.287752E-05
591.1027,-3.291425E-05
591.2027,-3.292555E-05
591.3027,-3.287469E-05
591.4026,-3.287469E-05
591.5026,-3.28954E-05
591.6026,-3.287375E-05
591.7026,-3.290012E-05
591.8026,-3.290012E-05
591.9025,-3.284738E-05
592.0025,-3.286621E-05
592.1025,-3.28794E-05
592.2025,-3.28681E-05
592.3024,-3.288411E-05
592.4024,-3.286715E-05
592.5024,-3.287281E-05
592.6024,-3.288882E-05
592.7023,-3.290577E-05
592.8023,-3.285868E-05
592.9023,-3.289164E-05
593.0023,-3.285962E-05
593.1022,-3.287846E-05
593.2022,-3.291707E-05
593.3022,-3.287092E-05
593.4022,-3.284738E-05
593.5021,-3.29359E-05
593.6021,-3.297357E-05
593.7021,-3.288693E-05
593.8021,-3.286904E-05
593.902,-3.288505E-05
594.002,-3.286621E-05
594.102,-3.29133E-05
594.202,-3.288882E-05
594.3019,-3.285586E-05
594.4019,-3.286621E-05
594.5019,-3.28954E-05
594.6019,-3.28794E-05
594.7018,-3.287846E-05
594.8018,-3.286527E-05
594.9018,-3.289635E-05
595.0018,-3.28907E-05
595.1017,-3.288222E-05
595.2017,-3.288693E-05
595.3017,-3.288787E-05
595.4017,-3.288222E-05
595.5016,-3.285586E-05
595.6016,-3.292083E-05
595.7016,-3.288411E-05
595.8016,-3.285868E-05
595.9016,-3.288222E-05
596.0015,-3.29133E-05
596.1015,-3.287375E-05
596.2015,-3.28681E-05
596.3015,-3.291895E-05
596.4014,-3.291707E-05
596.5014,-3.291707E-05
596.6014,-3.290294E-05
596.7014,-3.29133E-05
596.8013,-3.288599E-05
596.9013,-3.290953E-05
597.0013,-3.289729E-05
597.1013,-3.289352E-05
597.2012,-3.289447E-05
597.3012,-3.290106E-05
597.4012,-3.288411E-05
597.5012,-3.289164E-05
597.6011,-3.289729E-05
597.7011,-3.28794E-05
597.8011,-3.290859E-05
597.9011,-3.288222E-05
598.001,-3.28954E-05
598.101,-3.290106E-05
598.201,-3.287846E-05
598.301,-3.289352E-05
598.4009,-3.291518E-05
598.5009,-3.28907E-05
598.6009,-3.287657E-05
598.7009,-3.288882E-05
598.8008,-3.288975E-05
598.9008,-3.289164E-05
599.0008,-3.290577E-05
599.1008,-3.285303E-05
599.2007,-3.287092E-05
599.3007,-3.289729E-05
599.4007,-3.28907E-05
599.5007,-3.288505E-05
599.6006,-3.289352E-05
599.7006,-3.288882E-05
599.8006,-3.287469E-05
599.9006,-3.291048E-05
600.0005,-3.28794E-05
